SpectraSuite Data File
++++++++++++++++++++++++++++++++++++
Date: Fri Feb 07 19:02:24 EST 2020
User: BHM
Dark Spectrum Present: No
Reference Spectrum Present: No
Number of Sampled Component Spectra: 1
Spectrometers: USB4H07074
Integration Time (usec): 1000000 (USB4H07074)
Spectra Averaged: 1 (USB4H07074)
Boxcar Smoothing: 0 (USB4H07074)
Correct for Electrical Dark: No (USB4H07074)
Strobe/Lamp Enabled: No (USB4H07074)
Correct for Detector Non-linearity: No (USB4H07074)
Correct for Stray Light: No (USB4H07074)
Number of Pixels in Processed Spectrum: 3648
>>>>>Begin Processed Spectral Data<<<<<
194.67	1320.94
194.89	1320.94
195.11	1320.94
195.33	1273.84
195.55	1265.64
195.77	2361.31
195.99	2435.03
196.21	1871.84
196.42	2078.69
196.64	2353.12
196.86	2246.62
197.08	2062.30
197.30	2181.09
197.52	2113.50
197.74	2068.45
197.96	1863.65
198.18	2060.26
198.40	2332.64
198.61	2432.99
198.83	2297.82
199.05	2050.02
199.27	2226.14
199.49	2494.43
199.71	2355.16
199.93	2105.31
200.15	2424.80
200.37	2340.83
200.58	2011.11
200.80	2449.37
201.02	2525.15
201.24	2312.16
201.46	2363.36
201.68	2226.14
201.90	2195.42
202.12	2613.21
202.34	2349.02
202.55	2469.85
202.77	2326.49
202.99	2297.82
203.21	2248.67
203.43	2453.47
203.65	2355.16
203.87	2297.82
204.09	2375.64
204.30	2607.06
204.52	2691.03
204.74	2357.21
204.96	2254.81
205.18	2267.10
205.40	2449.37
205.62	2146.27
205.84	2510.81
206.05	2353.12
206.27	2467.80
206.49	2418.65
206.71	2279.39
206.93	2205.66
207.15	2543.58
207.37	2574.30
207.58	2359.26
207.80	1966.05
208.02	2242.53
208.24	2328.54
208.46	2117.60
208.68	2166.75
208.90	2637.78
209.11	2299.87
209.33	2060.26
209.55	2242.53
209.77	2228.19
209.99	2308.06
210.21	2215.90
210.43	2246.62
210.64	2463.71
210.86	2404.32
211.08	2084.83
211.30	2465.75
211.52	2396.12
211.74	2430.94
211.95	2191.33
212.17	2426.84
212.39	2387.93
212.61	2619.35
212.83	2121.70
213.05	2093.02
213.26	2398.17
213.48	2295.77
213.70	2133.98
213.92	2211.81
214.14	2459.61
214.36	2170.85
214.57	2054.11
214.79	2473.95
215.01	2504.67
215.23	2547.67
215.45	2256.86
215.67	2093.02
215.88	2523.10
216.10	2639.83
216.32	2033.63
216.54	2113.50
216.76	2279.39
216.97	2328.54
217.19	2095.07
217.41	2209.76
217.63	2496.47
217.85	2512.86
218.07	2054.11
218.28	2539.48
218.50	2510.81
218.72	2449.37
218.94	2234.33
219.16	2344.92
219.37	2328.54
219.59	2555.86
219.81	2023.39
220.03	2129.89
220.25	2445.27
220.46	2705.37
220.68	2054.11
220.90	2093.02
221.12	2293.72
221.34	2267.10
221.55	2174.94
221.77	1951.71
221.99	2142.18
222.21	2451.42
222.43	2525.15
222.64	1961.95
222.86	2693.08
223.08	2299.87
223.30	2248.67
223.52	2248.67
223.73	2392.03
223.95	2762.71
224.17	2244.57
224.39	2084.83
224.60	2328.54
224.82	2328.54
225.04	2142.18
225.26	2072.54
225.48	2220.00
225.69	2527.19
225.91	2107.36
226.13	2529.24
226.35	2492.38
226.56	2385.88
226.78	2025.44
227.00	2117.60
227.22	2488.28
227.44	2482.14
227.65	2074.59
227.87	2242.53
228.09	2367.45
228.31	2426.84
228.52	2080.74
228.74	2154.46
228.96	2453.47
229.18	2318.30
229.39	2295.77
229.61	2011.11
229.83	2199.52
230.05	2275.29
230.26	2615.26
230.48	2351.07
230.70	2406.36
230.92	2226.14
231.13	2299.87
231.35	2244.57
231.57	2207.71
231.79	2574.30
232.00	2093.02
232.22	2015.20
232.44	2359.26
232.66	2484.19
232.87	2273.25
233.09	2203.61
233.31	2516.95
233.53	2363.36
233.74	2318.30
233.96	2494.43
234.18	2340.83
234.40	2432.99
234.61	2152.42
234.83	2109.41
235.05	2437.08
235.27	2394.08
235.48	2078.69
235.70	2195.42
235.92	2367.45
236.14	2424.80
236.35	2148.32
236.57	2355.16
236.79	2500.57
237.00	2320.35
237.22	2127.84
237.44	2389.98
237.66	2287.58
237.87	2547.67
238.09	2072.54
238.31	1970.15
238.53	2308.06
238.74	2475.99
238.96	2133.98
239.18	2119.65
239.39	2269.15
239.61	2449.37
239.83	2154.46
240.05	2217.95
240.26	2160.61
240.48	2449.37
240.70	2346.97
240.91	2385.88
241.13	2299.87
241.35	2107.36
241.56	2183.13
241.78	2144.22
242.00	2498.52
242.22	2469.85
242.43	2381.79
242.65	2357.21
242.87	2387.93
243.08	2506.71
243.30	2234.33
243.52	2273.25
243.73	2805.72
243.95	2600.92
244.17	2158.56
244.39	2066.40
244.60	2367.45
244.82	2428.89
245.04	2031.58
245.25	1923.04
245.47	2279.39
245.69	2365.40
245.90	2107.36
246.12	1941.47
246.34	2514.91
246.55	2412.51
246.77	2465.75
246.99	2336.73
247.20	2260.96
247.42	2617.30
247.64	2033.63
247.86	1853.41
248.07	2637.78
248.29	2408.41
248.51	2076.64
248.72	2281.44
248.94	2480.09
249.16	2357.21
249.37	2019.30
249.59	2342.88
249.81	2283.49
250.02	2330.59
250.24	2381.79
250.46	2258.91
250.67	2441.18
250.89	2328.54
251.11	2066.40
251.32	2217.95
251.54	2463.71
251.76	2369.50
251.97	2035.68
252.19	2230.24
252.40	2277.34
252.62	2508.76
252.84	2258.91
253.05	2314.20
253.27	2699.22
253.49	2377.69
253.70	2271.20
253.92	2607.06
254.14	2533.34
254.35	2336.73
254.57	2127.84
254.79	2101.22
255.00	2801.62
255.22	2459.61
255.44	2254.81
255.65	2318.30
255.87	2285.53
256.08	2402.27
256.30	1996.77
256.52	2222.05
256.73	2420.70
256.95	2473.95
257.17	1931.23
257.38	2418.65
257.60	2381.79
257.82	2340.83
258.03	2105.31
258.25	2101.22
258.46	2246.62
258.68	2396.12
258.90	2068.45
259.11	2017.25
259.33	2613.21
259.55	2308.06
259.76	2201.57
259.98	2099.17
260.19	2052.06
260.41	2330.59
260.63	2164.70
260.84	2105.31
261.06	2375.64
261.27	2584.54
261.49	2236.38
261.71	2271.20
261.92	2203.61
262.14	2445.27
262.35	2099.17
262.57	1941.47
262.79	2283.49
263.00	2392.03
263.22	2111.46
263.44	2205.66
263.65	2336.73
263.87	2338.78
264.08	2211.81
264.30	2205.66
264.52	2303.96
264.73	2566.10
264.95	2052.06
265.16	2291.68
265.38	2361.31
265.59	2287.58
265.81	2387.93
266.03	2138.08
266.24	2375.64
266.46	2328.54
266.67	2318.30
266.89	2387.93
267.11	2320.35
267.32	2306.01
267.54	2215.90
267.75	2252.77
267.97	2183.13
268.19	2359.26
268.40	2027.49
268.62	2035.68
268.83	2557.91
269.05	2279.39
269.26	2394.08
269.48	2289.63
269.70	2285.53
269.91	2596.82
270.13	2226.14
270.34	2220.00
270.56	2244.57
270.77	2316.25
270.99	1982.43
271.21	2314.20
271.42	2297.82
271.64	2449.37
271.85	2164.70
272.07	2314.20
272.28	2545.63
272.50	2535.39
272.71	2461.66
272.93	2263.01
273.15	2312.16
273.36	2334.68
273.58	2150.37
273.79	2152.42
274.01	2633.69
274.22	2705.37
274.44	2109.41
274.65	2230.24
274.87	2019.30
275.09	2338.78
275.30	2002.91
275.52	2160.61
275.73	2389.98
275.95	2486.23
276.16	2453.47
276.38	2224.09
276.59	2459.61
276.81	2568.15
277.02	2197.47
277.24	2009.06
277.45	2686.94
277.67	2324.44
277.89	2076.64
278.10	2459.61
278.32	2320.35
278.53	2312.16
278.75	2127.84
278.96	2168.80
279.18	2349.02
279.39	2285.53
279.61	2142.18
279.82	2361.31
280.04	2248.67
280.25	2303.96
280.47	2095.07
280.68	2103.26
280.90	2342.88
281.11	2256.86
281.33	2099.17
281.54	2140.13
281.76	2267.10
281.97	2129.89
282.19	2131.94
282.40	2338.78
282.62	2160.61
282.83	2596.82
283.05	1982.43
283.27	2338.78
283.48	2189.28
283.70	2385.88
283.91	2301.92
284.13	2101.22
284.34	2250.72
284.56	2381.79
284.77	2146.27
284.99	2224.09
285.20	2273.25
285.42	2432.99
285.63	2336.73
285.84	2363.36
286.06	2357.21
286.27	2107.36
286.49	2146.27
286.70	2170.85
286.92	2318.30
287.13	2265.05
287.35	2133.98
287.56	2271.20
287.78	2662.36
287.99	2129.89
288.21	1951.71
288.42	2682.84
288.64	2463.71
288.85	2482.14
289.07	2318.30
289.28	2215.90
289.50	2277.34
289.71	2373.60
289.93	2123.74
290.14	2039.78
290.36	2478.04
290.57	2213.85
290.79	2291.68
291.00	2244.57
291.22	2363.36
291.43	2785.24
291.64	2207.71
291.86	2195.42
292.07	2482.14
292.29	2482.14
292.50	2291.68
292.72	2136.03
292.93	2658.26
293.15	2631.64
293.36	2293.72
293.58	2199.52
293.79	2287.58
294.00	2656.22
294.22	2121.70
294.43	2271.20
294.65	2803.67
294.86	2492.38
295.08	2375.64
295.29	2873.30
295.51	2619.35
295.72	2715.61
295.94	2338.78
296.15	1955.81
296.36	2398.17
296.58	2408.41
296.79	2414.56
297.01	2265.05
297.22	2396.12
297.44	2553.82
297.65	2437.08
297.86	2500.57
298.08	2396.12
298.29	2682.84
298.51	2404.32
298.72	2273.25
298.94	2303.96
299.15	2490.33
299.36	2375.64
299.58	2211.81
299.79	2623.45
300.01	2519.00
300.22	2430.94
300.44	2133.98
300.65	2514.91
300.86	2297.82
301.08	2267.10
301.29	2199.52
301.51	2764.76
301.72	2920.40
301.93	2404.32
302.15	2267.10
302.36	2660.31
302.58	2607.06
302.79	2500.57
303.01	2318.30
303.22	2457.56
303.43	2650.07
303.65	2322.40
303.86	2355.16
304.08	2465.75
304.29	2527.19
304.50	2519.00
304.72	2176.99
304.93	2461.66
305.15	2904.02
305.36	2252.77
305.57	2451.42
305.79	2283.49
306.00	2576.34
306.22	2344.92
306.43	2355.16
306.64	2453.47
306.86	2813.91
307.07	2514.91
307.28	2353.12
307.50	2484.19
307.71	2713.56
307.93	2248.67
308.14	2334.68
308.35	2514.91
308.57	2539.48
308.78	2453.47
309.00	2338.78
309.21	2502.62
309.42	2519.00
309.64	2285.53
309.85	2189.28
310.06	2459.61
310.28	2576.34
310.49	2291.68
310.71	1980.39
310.92	2652.12
311.13	2492.38
311.35	2330.59
311.56	2566.10
311.77	2590.68
311.99	2643.93
312.20	2320.35
312.41	2572.25
312.63	2510.81
312.84	2547.67
313.06	2236.38
313.27	2535.39
313.48	2449.37
313.70	2566.10
313.91	2426.84
314.12	2117.60
314.34	2734.04
314.55	2471.90
314.76	2537.43
314.98	2486.23
315.19	2467.80
315.40	2705.37
315.62	2344.92
315.83	2568.15
316.04	2760.66
316.26	2617.30
316.47	2461.66
316.68	2449.37
316.90	2445.27
317.11	2553.82
317.32	2551.77
317.54	2482.14
317.75	2459.61
317.96	2527.19
318.18	2176.99
318.39	2383.84
318.60	2492.38
318.82	2316.25
319.03	2308.06
319.24	2236.38
319.46	2629.59
319.67	2598.87
319.88	2183.13
320.10	2205.66
320.31	2367.45
320.52	2473.95
320.74	2189.28
320.95	2097.12
321.16	2150.37
321.38	2725.85
321.59	2359.26
321.80	2133.98
322.02	2330.59
322.23	2942.93
322.44	2326.49
322.65	2230.24
322.87	2410.46
323.08	2488.28
323.29	2455.51
323.51	2639.83
323.72	2670.55
323.93	2508.76
324.15	2318.30
324.36	2385.88
324.57	2621.40
324.78	2533.34
325.00	2627.54
325.21	2369.50
325.42	2521.05
325.64	2482.14
325.85	2330.59
326.06	2170.85
326.28	2367.45
326.49	2379.74
326.70	2359.26
326.91	2326.49
327.13	2514.91
327.34	2574.30
327.55	2547.67
327.77	2162.66
327.98	2488.28
328.19	2537.43
328.40	2392.03
328.62	2189.28
328.83	2586.58
329.04	2387.93
329.25	2306.01
329.47	2236.38
329.68	2361.31
329.89	2535.39
330.11	2240.48
330.32	2314.20
330.53	2314.20
330.74	2658.26
330.96	2408.41
331.17	2193.37
331.38	2707.41
331.59	2420.70
331.81	2275.29
332.02	2365.40
332.23	2430.94
332.44	2496.47
332.66	2541.53
332.87	2074.59
333.08	2416.60
333.29	2551.77
333.51	2705.37
333.72	2215.90
333.93	2330.59
334.14	2750.42
334.36	2576.34
334.57	2324.44
334.78	2473.95
334.99	2738.13
335.21	2543.58
335.42	2387.93
335.63	2621.40
335.84	2525.15
336.06	2363.36
336.27	2299.87
336.48	2342.88
336.69	2725.85
336.91	2334.68
337.12	2424.80
337.33	2478.04
337.54	2332.64
337.75	2723.80
337.97	2215.90
338.18	2562.01
338.39	2330.59
338.60	2187.23
338.82	2572.25
339.03	2432.99
339.24	2461.66
339.45	2228.19
339.66	2254.81
339.88	2813.91
340.09	2346.97
340.30	2291.68
340.51	2457.56
340.73	2506.71
340.94	2775.00
341.15	2310.11
341.36	2281.44
341.57	2363.36
341.79	2592.73
342.00	2316.25
342.21	2291.68
342.42	2109.41
342.63	2461.66
342.85	2432.99
343.06	2342.88
343.27	2324.44
343.48	2400.22
343.69	2291.68
343.91	2420.70
344.12	2721.75
344.33	2291.68
344.54	2705.37
344.75	2207.71
344.97	2439.13
345.18	2295.77
345.39	2473.95
345.60	2220.00
345.81	2379.74
346.02	2351.07
346.24	2598.87
346.45	2353.12
346.66	2414.56
346.87	2412.51
347.08	2015.20
347.30	2183.13
347.51	2392.03
347.72	2461.66
347.93	2338.78
348.14	2432.99
348.35	2349.02
348.57	2355.16
348.78	1910.75
348.99	2256.86
349.20	2230.24
349.41	2707.41
349.62	2795.48
349.84	2482.14
350.05	2392.03
350.26	2308.06
350.47	2328.54
350.68	2381.79
350.89	2498.52
351.11	2355.16
351.32	2377.69
351.53	2301.92
351.74	2410.46
351.95	2734.04
352.16	2424.80
352.37	2355.16
352.59	2357.21
352.80	2580.44
353.01	2226.14
353.22	2496.47
353.43	2541.53
353.64	2441.18
353.86	2258.91
354.07	2443.23
354.28	2240.48
354.49	2406.36
354.70	2351.07
354.91	2131.94
355.12	2535.39
355.33	2576.34
355.55	2138.08
355.76	2349.02
355.97	2523.10
356.18	2527.19
356.39	2389.98
356.60	2205.66
356.81	2402.27
357.03	2555.86
357.24	2320.35
357.45	2580.44
357.66	2486.23
357.87	2607.06
358.08	2265.05
358.29	2342.88
358.50	2557.91
358.71	2645.98
358.93	2502.62
359.14	2330.59
359.35	3362.76
359.56	2519.00
359.77	2609.11
359.98	2457.56
360.19	2797.53
360.40	2867.16
360.61	2969.55
360.83	2883.54
361.04	2963.41
361.25	3229.65
361.46	3188.69
361.67	2867.16
361.88	3338.19
362.09	3348.43
362.30	3504.07
362.51	3831.75
362.72	3868.61
362.94	4364.22
363.15	4480.96
363.36	4669.37
363.57	4478.91
363.78	4620.22
363.99	4757.43
364.20	4302.78
364.41	4540.35
364.62	4669.37
364.83	4409.28
365.04	4079.55
365.26	4298.69
365.47	4048.83
365.68	4067.27
365.89	3925.96
366.10	3934.15
366.31	4253.63
366.52	3706.82
366.73	3790.79
366.94	3678.15
367.15	3317.71
367.36	3055.57
367.57	3002.32
367.78	2969.55
367.99	2920.40
368.21	2625.50
368.42	2789.33
368.63	2830.29
368.84	3043.28
369.05	2697.17
369.26	2672.60
369.47	2738.13
369.68	2926.55
369.89	2486.23
370.10	2822.10
370.31	3170.26
370.52	2897.88
370.73	2500.57
370.94	2775.00
371.15	2861.01
371.36	2820.05
371.57	2688.98
371.78	2854.87
371.99	2750.42
372.20	3254.22
372.42	3090.38
372.63	2803.67
372.84	2766.81
373.05	2830.29
373.26	2660.31
373.47	2846.68
373.68	2807.77
373.89	2818.00
374.10	2519.00
374.31	3055.57
374.52	2914.26
374.73	2809.81
374.94	2947.03
375.15	3082.19
375.36	2756.57
375.57	2916.31
375.78	2818.00
375.99	2869.20
376.20	2877.40
376.41	3112.91
376.62	3035.09
376.83	3178.45
377.04	3061.71
377.25	3551.18
377.46	3254.22
377.67	3434.44
377.88	3706.82
378.09	4095.94
378.30	3612.62
378.51	3903.43
378.72	3825.61
378.93	4259.78
379.14	3839.94
379.35	3887.04
379.56	4288.45
379.77	4673.46
379.98	4229.06
380.19	4640.70
380.40	4222.91
380.61	4497.34
380.82	4341.69
381.03	4515.77
381.24	4566.97
381.45	4288.45
381.66	4333.50
381.87	4227.01
382.08	4192.19
382.29	4149.18
382.50	3923.91
382.71	4341.69
382.92	3903.43
383.13	4138.94
383.34	3780.55
383.55	3426.25
383.76	3657.67
383.97	3686.34
384.18	3493.83
384.39	3674.06
384.60	3637.19
384.81	3430.35
385.02	3483.59
385.23	3356.62
385.44	3348.43
385.65	3866.56
385.86	3471.31
386.07	3219.41
386.28	3323.85
386.49	2881.49
386.70	3155.92
386.91	3078.10
387.11	3358.67
387.32	3172.30
387.53	3102.67
387.74	3192.78
387.95	3274.70
388.16	3125.20
388.37	3467.21
388.58	3268.56
388.79	3248.08
389.00	3334.09
389.21	3182.54
389.42	3016.66
389.63	2947.03
389.84	3370.96
390.05	3239.89
390.26	3086.29
390.47	3065.81
390.68	3196.88
390.89	3008.47
391.09	3256.27
391.30	3090.38
391.51	3467.21
391.72	3045.33
391.93	3477.45
392.14	3178.45
392.35	3117.01
392.56	3508.17
392.77	3145.68
392.98	3147.73
393.19	3162.06
393.40	3336.14
393.61	3137.49
393.82	3534.79
394.02	3485.64
394.23	3413.96
394.44	3225.55
394.65	3547.08
394.86	3280.85
395.07	3330.00
395.28	3205.07
395.49	3192.78
395.70	3680.20
395.91	3723.21
396.12	3428.30
396.32	3688.39
396.53	3534.79
396.74	3696.58
396.95	3766.21
397.16	4233.15
397.37	3729.35
397.58	4104.13
397.79	3571.66
398.00	3997.64
398.21	4181.95
398.41	4186.05
398.62	4130.75
398.83	4200.38
399.04	4814.77
399.25	4444.09
399.46	4300.73
399.67	4372.41
399.88	4786.10
400.09	4575.16
400.29	4798.39
400.50	4730.81
400.71	4485.05
400.92	4982.71
401.13	4933.56
401.34	5275.57
401.55	5103.54
401.76	5416.88
401.96	5324.72
402.17	5697.45
402.38	5711.78
402.59	5705.64
402.80	5633.96
403.01	6037.41
403.22	6256.54
403.43	6479.77
403.63	6432.67
403.84	6821.78
404.05	6956.95
404.26	7118.74
404.47	7221.14
404.68	7683.98
404.89	7815.05
405.09	7980.93
405.30	8257.41
405.51	8445.82
405.72	9156.47
405.93	9019.25
406.14	9162.61
406.35	10239.84
406.55	10405.73
406.76	10528.61
406.97	11079.51
407.18	11470.67
407.39	11999.05
407.60	12502.85
407.80	12674.88
408.01	13078.33
408.22	13831.98
408.43	13991.72
408.64	14577.44
408.85	15214.36
409.05	15480.60
409.26	16441.09
409.47	16944.89
409.68	17016.57
409.89	17731.31
410.10	18202.35
410.30	19017.44
410.51	19723.99
410.72	20408.01
410.93	20539.08
411.14	21868.21
411.35	22298.28
411.55	22660.77
411.76	23733.91
411.97	24194.70
412.18	25863.80
412.39	25706.10
412.59	26543.72
412.80	27379.29
413.01	28585.55
413.22	28929.61
413.43	29789.75
413.63	30311.99
413.84	30981.67
414.05	31344.16
414.26	32636.43
414.47	33498.62
414.67	34655.73
414.88	34807.28
415.09	35362.28
415.30	36623.83
415.51	37178.82
415.71	37731.78
415.92	39019.95
416.13	39333.29
416.34	40205.72
416.55	41051.53
416.75	41710.98
416.96	41899.39
417.17	42569.08
417.38	43533.67
417.59	44528.98
417.79	44391.77
418.00	45839.68
418.21	46333.24
418.42	46579.00
418.62	47437.10
418.83	48094.50
419.04	48217.38
419.25	49206.55
419.46	50001.16
419.66	51238.13
419.87	51117.30
420.08	51809.51
420.29	51074.29
420.49	52704.48
420.70	53353.68
420.91	53173.46
421.12	53746.89
421.32	53886.15
421.53	54525.12
421.74	55196.85
421.95	54918.33
422.15	55291.06
422.36	55803.05
422.57	56290.47
422.78	55882.92
422.98	57336.98
423.19	57760.91
423.40	56575.14
423.61	57840.78
423.81	59057.27
424.02	58197.13
424.23	58709.12
424.44	58629.25
424.64	58655.87
424.85	58227.85
425.06	59184.25
425.27	58879.10
425.47	60089.45
425.68	59747.44
425.89	60058.73
426.10	60028.01
426.30	60200.04
426.51	59606.13
426.72	60572.77
426.92	61066.33
427.13	60793.95
427.34	60634.21
427.55	61082.72
427.75	61054.04
427.96	60785.76
428.17	61394.01
428.38	61181.02
428.58	61113.44
428.79	61617.24
429.00	61164.63
429.20	61334.62
429.41	61357.14
429.62	60552.29
429.82	61307.99
430.03	61215.83
430.24	61553.75
430.45	61459.54
430.65	62159.95
430.86	62383.18
431.07	61609.04
431.27	61598.80
431.48	61572.18
431.69	61299.80
431.90	61473.88
432.10	61277.27
432.31	61486.17
432.52	61498.45
432.72	62065.74
432.93	62018.64
433.14	61076.57
433.34	61938.77
433.55	60789.86
433.76	61609.04
433.96	61987.92
434.17	60650.59
434.38	62061.64
434.58	61985.87
434.79	61152.35
435.00	61396.06
435.21	61920.34
435.41	61908.05
435.62	61129.82
435.83	61396.06
436.03	60396.65
436.24	61506.65
436.45	60949.60
436.65	61084.76
436.86	61336.66
437.07	61449.30
437.27	61045.85
437.48	62577.73
437.69	61043.80
437.89	61422.68
438.10	61029.47
438.31	61932.62
438.51	61246.55
438.72	61314.14
438.92	61285.46
439.13	60408.93
439.34	60890.21
439.54	62104.65
439.75	61398.10
439.96	59835.50
440.16	59915.37
440.37	60437.61
440.58	60318.82
440.78	59888.75
440.99	59483.25
441.20	61332.57
441.40	60443.75
441.61	59376.76
441.82	59868.27
442.02	59720.82
442.23	58952.83
442.43	59425.91
442.64	60402.79
442.85	59532.40
443.05	59694.19
443.26	60154.99
443.47	58784.90
443.67	59696.24
443.88	59047.04
444.08	59028.60
444.29	58150.02
444.50	58535.04
444.70	57816.21
444.91	58606.72
445.12	58221.70
445.32	57631.89
445.53	58244.23
445.73	57439.38
445.94	57269.40
446.15	56761.50
446.35	57898.12
446.56	57273.49
446.76	57015.45
446.97	56620.19
447.18	55958.70
447.38	55903.40
447.59	56880.28
447.79	56579.23
448.00	55801.00
448.21	55647.41
448.41	55475.38
448.62	55579.82
448.82	55487.67
449.03	54437.06
449.24	54039.75
449.44	54121.67
