SpectraSuite Data File
++++++++++++++++++++++++++++++++++++
Date: Fri Feb 07 19:28:10 EST 2020
User: BHM
Dark Spectrum Present: No
Reference Spectrum Present: No
Number of Sampled Component Spectra: 1
Spectrometers: USB4H07074
Integration Time (usec): 1000000 (USB4H07074)
Spectra Averaged: 1 (USB4H07074)
Boxcar Smoothing: 0 (USB4H07074)
Correct for Electrical Dark: No (USB4H07074)
Strobe/Lamp Enabled: No (USB4H07074)
Correct for Detector Non-linearity: No (USB4H07074)
Correct for Stray Light: No (USB4H07074)
Number of Pixels in Processed Spectrum: 3648
>>>>>Begin Processed Spectral Data<<<<<
194.67	1245.16
194.89	1245.16
195.11	1245.16
195.33	1202.16
195.55	1339.37
195.77	2330.59
195.99	2488.28
196.21	1978.34
196.42	2052.06
196.64	2340.83
196.86	2260.96
197.08	2066.40
197.30	2312.16
197.52	2174.94
197.74	2050.02
197.96	1941.47
198.18	2115.55
198.40	2326.49
198.61	2475.99
198.83	2275.29
199.05	2252.77
199.27	2342.88
199.49	2609.11
199.71	2572.25
199.93	2299.87
200.15	2508.76
200.37	2422.75
200.58	2017.25
200.80	2506.71
201.02	2574.30
201.24	2404.32
201.46	2418.65
201.68	2265.05
201.90	2330.59
202.12	2664.41
202.34	2437.08
202.55	2508.76
202.77	2371.55
202.99	2394.08
203.21	2373.60
203.43	2400.22
203.65	2387.93
203.87	2303.96
204.09	2443.23
204.30	2588.63
204.52	2723.80
204.74	2416.60
204.96	2279.39
205.18	2426.84
205.40	2625.50
205.62	2236.38
205.84	2590.68
206.05	2498.52
206.27	2553.82
206.49	2461.66
206.71	2301.92
206.93	2453.47
207.15	2715.61
207.37	2729.94
207.58	2392.03
207.80	2097.12
208.02	2447.32
208.24	2449.37
208.46	2150.37
208.68	2207.71
208.90	2562.01
209.11	2496.47
209.33	2162.66
209.55	2346.97
209.77	2324.44
209.99	2359.26
210.21	2310.11
210.43	2240.48
210.64	2547.67
210.86	2457.56
211.08	2080.74
211.30	2592.73
211.52	2490.33
211.74	2461.66
211.95	2299.87
212.17	2551.77
212.39	2369.50
212.61	2660.31
212.83	2195.42
213.05	2199.52
213.26	2523.10
213.48	2453.47
213.70	2207.71
213.92	2183.13
214.14	2635.74
214.36	2277.34
214.57	2076.64
214.79	2428.89
215.01	2586.58
215.23	2682.84
215.45	2242.53
215.67	2172.89
215.88	2572.25
216.10	2731.99
216.32	1978.34
216.54	2150.37
216.76	2445.27
216.97	2332.64
217.19	2185.18
217.41	2299.87
217.63	2494.43
217.85	2662.36
218.07	2140.13
218.28	2531.29
218.50	2617.30
218.72	2521.05
218.94	2213.85
219.16	2473.95
219.37	2330.59
219.59	2531.29
219.81	2084.83
220.03	2338.78
220.25	2490.33
220.46	2654.17
220.68	2220.00
220.90	2156.51
221.12	2494.43
221.34	2351.07
221.55	2271.20
221.77	2062.30
221.99	2265.05
222.21	2490.33
222.43	2578.39
222.64	2142.18
222.86	2691.03
223.08	2443.23
223.30	2287.58
223.52	2322.40
223.73	2510.81
223.95	2877.40
224.17	2287.58
224.39	2160.61
224.60	2480.09
224.82	2400.22
225.04	2260.96
225.26	2289.63
225.48	2263.01
225.69	2625.50
225.91	2273.25
226.13	2621.40
226.35	2461.66
226.56	2451.42
226.78	2230.24
227.00	2189.28
227.22	2496.47
227.44	2576.34
227.65	2107.36
227.87	2330.59
228.09	2367.45
228.31	2582.49
228.52	2136.03
228.74	2201.57
228.96	2537.43
229.18	2328.54
229.39	2435.03
229.61	2076.64
229.83	2258.91
230.05	2379.74
230.26	2691.03
230.48	2396.12
230.70	2531.29
230.92	2250.72
231.13	2297.82
231.35	2183.13
231.57	2330.59
231.79	2576.34
232.00	2240.48
232.22	2082.78
232.44	2498.52
232.66	2516.95
232.87	2365.40
233.09	2324.44
233.31	2703.32
233.53	2402.27
233.74	2351.07
233.96	2553.82
234.18	2392.03
234.40	2506.71
234.61	2207.71
234.83	2220.00
235.05	2467.80
235.27	2408.41
235.48	2109.41
235.70	2402.27
235.92	2357.21
236.14	2516.95
236.35	2238.43
236.57	2559.96
236.79	2549.72
237.00	2389.98
237.22	2220.00
237.44	2402.27
237.66	2260.96
237.87	2752.47
238.09	2097.12
238.31	2097.12
238.53	2426.84
238.74	2402.27
238.96	2252.77
239.18	2220.00
239.39	2267.10
239.61	2541.53
239.83	2314.20
240.05	2277.34
240.26	2238.43
240.48	2510.81
240.70	2375.64
240.91	2533.34
241.13	2363.36
241.35	2256.86
241.56	2265.05
241.78	2254.81
242.00	2428.89
242.22	2486.23
242.43	2494.43
242.65	2516.95
242.87	2420.70
243.08	2553.82
243.30	2326.49
243.52	2416.60
243.73	2852.82
243.95	2549.72
244.17	2160.61
244.39	2074.59
244.60	2482.14
244.82	2475.99
245.04	2174.94
245.25	2002.91
245.47	2291.68
245.69	2432.99
245.90	2066.40
246.12	1947.62
246.34	2555.86
246.55	2559.96
246.77	2578.39
246.99	2365.40
247.20	2367.45
247.42	2818.00
247.64	2064.35
247.86	1931.23
248.07	2643.93
248.29	2353.12
248.51	2187.23
248.72	2273.25
248.94	2482.14
249.16	2437.08
249.37	2152.42
249.59	2359.26
249.81	2295.77
250.02	2449.37
250.24	2478.04
250.46	2385.88
250.67	2588.63
250.89	2406.36
251.11	2084.83
251.32	2205.66
251.54	2498.52
251.76	2451.42
251.97	2220.00
252.19	2361.31
252.40	2346.97
252.62	2525.15
252.84	2379.74
253.05	2457.56
253.27	2822.10
253.49	2435.03
253.70	2281.44
253.92	2621.40
254.14	2607.06
254.35	2383.84
254.57	2158.56
254.79	2199.52
255.00	2908.12
255.22	2510.81
255.44	2314.20
255.65	2359.26
255.87	2353.12
256.08	2402.27
256.30	2117.60
256.52	2271.20
256.73	2533.34
256.95	2525.15
257.17	2095.07
257.38	2478.04
257.60	2406.36
257.82	2404.32
258.03	2099.17
258.25	2181.09
258.46	2322.40
258.68	2559.96
258.90	2193.37
259.11	2101.22
259.33	2670.55
259.55	2303.96
259.76	2377.69
259.98	2172.89
260.19	2047.97
260.41	2394.08
260.63	2140.13
260.84	2176.99
261.06	2469.85
261.27	2549.72
261.49	2224.09
261.71	2295.77
261.92	2269.15
262.14	2602.97
262.35	2287.58
262.57	2060.26
262.79	2242.53
263.00	2492.38
263.22	2154.46
263.44	2185.18
263.65	2486.23
263.87	2541.53
264.08	2109.41
264.30	2359.26
264.52	2418.65
264.73	2588.63
264.95	2209.76
265.16	2291.68
265.38	2424.80
265.59	2349.02
265.81	2402.27
266.03	2164.70
266.24	2437.08
266.46	2404.32
266.67	2385.88
266.89	2611.16
267.11	2340.83
267.32	2336.73
267.54	2361.31
267.75	2310.11
267.97	2344.92
268.19	2371.55
268.40	2154.46
268.62	2099.17
268.83	2455.51
269.05	2387.93
269.26	2424.80
269.48	2281.44
269.70	2306.01
269.91	2541.53
270.13	2299.87
270.34	2283.49
270.56	2236.38
270.77	2306.01
270.99	2095.07
271.21	2408.41
271.42	2301.92
271.64	2535.39
271.85	2252.77
272.07	2377.69
272.28	2631.64
272.50	2521.05
272.71	2521.05
272.93	2303.96
273.15	2279.39
273.36	2383.84
273.58	2146.27
273.79	2322.40
274.01	2641.88
274.22	2740.18
274.44	2238.43
274.65	2244.57
274.87	2129.89
275.09	2351.07
275.30	2146.27
275.52	2203.61
275.73	2400.22
275.95	2588.63
276.16	2568.15
276.38	2271.20
276.59	2629.59
276.81	2711.51
277.02	2326.49
277.24	2127.84
277.45	2772.95
277.67	2580.44
277.89	2146.27
278.10	2422.75
278.32	2389.98
278.53	2324.44
278.75	2115.55
278.96	2453.47
279.18	2295.77
279.39	2422.75
279.61	2211.81
279.82	2320.35
280.04	2351.07
280.25	2310.11
280.47	2191.33
280.68	2101.22
280.90	2367.45
281.11	2271.20
281.33	2172.89
281.54	2129.89
281.76	2355.16
281.97	2160.61
282.19	2263.01
282.40	2441.18
282.62	2193.37
282.83	2619.35
283.05	2152.42
283.27	2359.26
283.48	2242.53
283.70	2500.57
283.91	2330.59
284.13	2150.37
284.34	2281.44
284.56	2549.72
284.77	2248.67
284.99	2326.49
285.20	2363.36
285.42	2588.63
285.63	2381.79
285.84	2418.65
286.06	2404.32
286.27	2224.09
286.49	2195.42
286.70	2228.19
286.92	2424.80
287.13	2246.62
287.35	2217.95
287.56	2312.16
287.78	2748.37
287.99	2209.76
288.21	2080.74
288.42	2904.02
288.64	2580.44
288.85	2621.40
289.07	2381.79
289.28	2342.88
289.50	2316.25
289.71	2437.08
289.93	2158.56
290.14	2105.31
290.36	2633.69
290.57	2213.85
290.79	2441.18
291.00	2447.32
291.22	2412.51
291.43	2895.83
291.64	2277.34
291.86	2224.09
292.07	2574.30
292.29	2562.01
292.50	2293.72
292.72	2142.18
292.93	2756.57
293.15	2660.31
293.36	2412.51
293.58	2355.16
293.79	2414.56
294.00	2588.63
294.22	2179.04
294.43	2269.15
294.65	2807.77
294.86	2547.67
295.08	2469.85
295.29	2881.49
295.51	2719.70
295.72	2744.28
295.94	2496.47
296.15	1986.53
296.36	2418.65
296.58	2424.80
296.79	2596.82
297.01	2277.34
297.22	2490.33
297.44	2566.10
297.65	2439.13
297.86	2496.47
298.08	2596.82
298.29	2832.34
298.51	2478.04
298.72	2340.83
298.94	2330.59
299.15	2590.68
299.36	2375.64
299.58	2248.67
299.79	2799.57
300.01	2514.91
300.22	2543.58
300.44	2207.71
300.65	2576.34
300.86	2398.17
301.08	2473.95
301.29	2287.58
301.51	2949.08
301.72	3059.67
301.93	2461.66
302.15	2353.12
302.36	2713.56
302.58	2551.77
302.79	2625.50
303.01	2326.49
303.22	2551.77
303.43	2723.80
303.65	2334.68
303.86	2406.36
304.08	2527.19
304.29	2533.34
304.50	2666.46
304.72	2293.72
304.93	2430.94
305.15	2906.07
305.36	2392.03
305.57	2543.58
305.79	2389.98
306.00	2607.06
306.22	2467.80
306.43	2439.13
306.64	2602.97
306.86	2881.49
307.07	2506.71
307.28	2400.22
307.50	2578.39
307.71	2885.59
307.93	2324.44
308.14	2387.93
308.35	2551.77
308.57	2623.45
308.78	2453.47
309.00	2420.70
309.21	2582.49
309.42	2621.40
309.64	2414.56
309.85	2203.61
310.06	2650.07
310.28	2650.07
310.49	2484.19
310.71	2045.92
310.92	2781.14
311.13	2490.33
311.35	2353.12
311.56	2645.98
311.77	2633.69
311.99	2672.60
312.20	2344.92
312.41	2699.22
312.63	2738.13
312.84	2619.35
313.06	2289.63
313.27	2627.54
313.48	2496.47
313.70	2609.11
313.91	2469.85
314.12	2181.09
314.34	2705.37
314.55	2592.73
314.76	2486.23
314.98	2404.32
315.19	2478.04
315.40	2750.42
315.62	2504.67
315.83	2682.84
316.04	2822.10
316.26	2779.09
316.47	2641.88
316.68	2523.10
316.90	2424.80
317.11	2688.98
317.32	2670.55
317.54	2484.19
317.75	2639.83
317.96	2617.30
318.18	2338.78
318.39	2449.37
318.60	2629.59
318.82	2439.13
319.03	2334.68
319.24	2387.93
319.46	2711.51
319.67	2672.60
319.88	2342.88
320.10	2293.72
320.31	2394.08
320.52	2502.62
320.74	2226.14
320.95	2248.67
321.16	2308.06
321.38	2861.01
321.59	2351.07
321.80	2222.05
322.02	2418.65
322.23	2983.89
322.44	2441.18
322.65	2277.34
322.87	2613.21
323.08	2502.62
323.29	2543.58
323.51	2617.30
323.72	2703.32
323.93	2635.74
324.15	2258.91
324.36	2469.85
324.57	2662.36
324.78	2488.28
325.00	2678.74
325.21	2404.32
325.42	2531.29
325.64	2568.15
325.85	2416.60
326.06	2199.52
326.28	2424.80
326.49	2453.47
326.70	2461.66
326.91	2572.25
327.13	2719.70
327.34	2627.54
327.55	2668.50
327.77	2283.49
327.98	2629.59
328.19	2541.53
328.40	2408.41
328.62	2199.52
328.83	2717.65
329.04	2521.05
329.25	2379.74
329.47	2394.08
329.68	2564.06
329.89	2559.96
330.11	2273.25
330.32	2281.44
330.53	2394.08
330.74	2658.26
330.96	2437.08
331.17	2273.25
331.38	2691.03
331.59	2576.34
331.81	2412.51
332.02	2396.12
332.23	2535.39
332.44	2641.88
332.66	2582.49
332.87	2150.37
333.08	2580.44
333.29	2631.64
333.51	2678.74
333.72	2174.94
333.93	2389.98
334.14	2777.05
334.36	2543.58
334.57	2402.27
334.78	2580.44
334.99	2813.91
335.21	2523.10
335.42	2502.62
335.63	2641.88
335.84	2629.59
336.06	2408.41
336.27	2310.11
336.48	2435.03
336.69	2791.38
336.91	2389.98
337.12	2461.66
337.33	2740.18
337.54	2377.69
337.75	2736.09
337.97	2248.67
338.18	2586.58
338.39	2510.81
338.60	2279.39
338.82	2625.50
339.03	2424.80
339.24	2430.94
339.45	2363.36
339.66	2371.55
339.88	2766.81
340.09	2416.60
340.30	2392.03
340.51	2402.27
340.73	2639.83
340.94	2842.58
341.15	2369.50
341.36	2455.51
341.57	2435.03
341.79	2705.37
342.00	2330.59
342.21	2244.57
342.42	2160.61
342.63	2531.29
342.85	2600.92
343.06	2426.84
343.27	2342.88
343.48	2463.71
343.69	2295.77
343.91	2533.34
344.12	2695.13
344.33	2361.31
344.54	2721.75
344.75	2246.62
344.97	2420.70
345.18	2312.16
345.39	2392.03
345.60	2265.05
345.81	2428.89
346.02	2437.08
346.24	2547.67
346.45	2504.67
346.66	2394.08
346.87	2488.28
347.08	2090.98
347.30	2236.38
347.51	2557.91
347.72	2404.32
347.93	2322.40
348.14	2490.33
348.35	2379.74
348.57	2432.99
348.78	1998.82
348.99	2410.46
349.20	2332.64
349.41	2820.05
349.62	2842.58
349.84	2592.73
350.05	2521.05
350.26	2428.89
350.47	2267.10
350.68	2320.35
350.89	2555.86
351.11	2478.04
351.32	2478.04
351.53	2496.47
351.74	2537.43
351.95	2789.33
352.16	2414.56
352.37	2338.78
352.59	2486.23
352.80	2623.45
353.01	2199.52
353.22	2549.72
353.43	2629.59
353.64	2555.86
353.86	2269.15
354.07	2576.34
354.28	2392.03
354.49	2465.75
354.70	2441.18
354.91	2127.84
355.12	2625.50
355.33	2693.08
355.55	2217.95
355.76	2445.27
355.97	2596.82
356.18	2617.30
356.39	2424.80
356.60	2299.87
356.81	2535.39
357.03	2562.01
357.24	2422.75
357.45	2652.12
357.66	2529.24
357.87	2699.22
358.08	2455.51
358.29	2432.99
358.50	2633.69
358.71	2838.48
358.93	2519.00
359.14	2359.26
359.35	3409.87
359.56	2625.50
359.77	2752.47
359.98	2639.83
360.19	2908.12
360.40	3133.39
360.61	3180.50
360.83	3043.28
361.04	3250.13
361.25	3446.73
361.46	3428.30
361.67	3123.15
361.88	3522.51
362.09	3375.05
362.30	3833.80
362.51	3979.20
362.72	4200.38
362.94	4786.10
363.15	4835.25
363.36	4923.32
363.57	4859.83
363.78	5042.10
363.99	4974.52
364.20	4849.59
364.41	4820.92
364.62	4935.60
364.83	4859.83
365.04	4532.15
365.26	4509.63
365.47	4515.77
365.68	4296.64
365.89	4196.29
366.10	4034.50
366.31	4622.27
366.52	3934.15
366.73	3979.20
366.94	3882.95
367.15	3475.40
367.36	3305.42
367.57	3252.17
367.78	3133.39
367.99	2932.69
368.21	2691.03
368.42	2979.79
368.63	2967.51
368.84	3129.30
369.05	2908.12
369.26	2762.71
369.47	2838.48
369.68	3108.82
369.89	2605.02
370.10	2836.44
370.31	3299.28
370.52	2953.17
370.73	2506.71
370.94	2830.29
371.15	2908.12
371.36	2840.53
371.57	2768.85
371.78	2863.06
371.99	2910.16
372.20	3235.79
372.42	3096.53
372.63	2709.46
372.84	2848.72
373.05	3039.19
373.26	2797.53
373.47	2871.25
373.68	3006.42
373.89	2885.59
374.10	2629.59
374.31	3184.59
374.52	2987.99
374.73	2951.12
374.94	3030.99
375.15	3235.79
375.36	3045.33
375.57	3039.19
375.78	3078.10
375.99	3096.53
376.20	3200.98
376.41	3436.49
376.62	3524.55
376.83	3731.40
377.04	3727.30
377.25	4177.86
377.46	4063.17
377.67	4159.42
377.88	4677.56
378.09	5023.67
378.30	4552.63
378.51	4958.13
378.72	4874.17
378.93	5369.77
379.14	5011.38
379.35	5197.74
379.56	5406.64
379.77	5846.95
379.98	5515.18
380.19	5541.80
380.40	5236.66
380.61	5590.95
380.82	5418.93
381.03	5404.59
381.24	5382.06
381.45	5164.98
381.66	5101.49
381.87	4816.82
382.08	4868.02
382.29	4681.66
382.50	4575.16
382.71	4878.26
382.92	4186.05
383.13	4579.26
383.34	4018.11
383.55	3729.35
383.76	3923.91
383.97	3958.72
384.18	3928.00
384.39	3829.70
384.60	3893.19
384.81	3762.12
385.02	3692.49
385.23	3526.60
385.44	3393.48
385.65	4065.22
385.86	3768.26
386.07	3373.00
386.28	3385.29
386.49	3162.06
386.70	3219.41
386.91	3182.54
387.11	3368.91
387.32	3311.57
387.53	3219.41
387.74	3395.53
387.95	3479.50
388.16	3315.66
388.37	3659.72
388.58	3473.36
388.79	3397.58
389.00	3475.40
389.21	3344.33
389.42	3141.58
389.63	3211.22
389.84	3678.15
390.05	3227.60
390.26	3227.60
390.47	3110.86
390.68	3307.47
390.89	3160.02
391.09	3557.32
391.30	3239.89
391.51	3649.48
391.72	3280.85
391.93	3450.83
392.14	3305.42
392.35	3178.45
392.56	3661.77
392.77	3350.48
392.98	3293.13
393.19	3385.29
393.40	3618.76
393.61	3241.93
393.82	3659.72
394.02	3524.55
394.23	3526.60
394.44	3348.43
394.65	3655.62
394.86	3506.12
395.07	3657.67
395.28	3401.68
395.49	3661.77
395.70	3770.31
395.91	3964.87
396.12	3612.62
396.32	3915.72
396.53	3672.01
396.74	3833.80
396.95	3952.58
397.16	4554.68
397.37	3825.61
397.58	4329.41
397.79	3850.18
398.00	4065.22
398.21	4624.31
398.41	4390.84
398.62	4267.97
398.83	4378.56
399.04	5134.26
399.25	4542.39
399.46	4376.51
399.67	4452.28
399.88	4880.31
400.09	4501.44
400.29	4802.49
400.50	4677.56
400.71	4386.75
400.92	4640.70
401.13	4569.02
401.34	5009.33
401.55	4730.81
401.76	4999.09
401.96	4906.93
402.17	5056.43
402.38	5207.98
402.59	5304.24
402.80	4962.23
403.01	5529.52
403.22	5402.54
403.43	5826.47
403.63	5416.88
403.84	5920.68
404.05	5941.16
404.26	5967.78
404.47	6191.01
404.68	6336.42
404.89	6336.42
405.09	6772.63
405.30	6737.82
405.51	7061.40
405.72	7440.27
405.93	7743.37
406.14	7573.39
406.35	8152.96
406.55	8402.82
406.76	8662.91
406.97	9009.01
407.18	9410.42
407.39	9742.19
407.60	10266.47
407.80	10491.74
408.01	10755.93
408.22	11398.99
408.43	11288.40
408.64	12017.48
408.85	12535.62
409.05	13023.03
409.26	13649.71
409.47	14180.14
409.68	14313.25
409.89	14948.12
410.10	15163.16
410.30	16031.50
410.51	16801.54
410.72	17420.02
410.93	17590.00
411.14	18405.10
411.35	19396.31
411.55	19859.15
411.76	20600.52
411.97	21216.96
412.18	22597.29
412.39	22974.11
412.59	23561.88
412.80	24217.23
413.01	25966.20
413.22	26265.20
413.43	26949.22
413.63	27592.28
413.84	28395.09
414.05	29144.64
414.26	29965.88
414.47	30701.10
414.67	32187.92
414.88	32777.74
415.09	33156.61
415.30	34317.81
415.51	35044.84
415.71	36083.16
415.92	37260.74
416.13	37754.30
416.34	38276.54
416.55	38710.71
416.75	40160.67
416.96	40705.43
417.17	41674.12
417.38	43119.98
417.59	43709.80
417.79	43963.75
418.00	45188.43
418.21	45972.80
418.42	46605.62
418.62	47275.31
418.83	48342.30
419.04	48663.83
419.25	49978.63
419.46	49970.44
419.66	51336.43
419.87	51555.57
420.08	52550.88
420.29	52288.74
420.49	53867.72
420.70	54449.35
420.91	54232.26
421.12	54807.74
421.32	55708.85
421.53	56777.89
421.74	56931.48
421.95	56773.79
422.15	57109.66
422.36	57650.32
422.57	58320.01
422.78	58223.75
422.98	59253.88
423.19	60396.65
423.40	59098.23
423.61	60286.06
423.81	61877.33
424.02	61082.72
424.23	61733.97
424.44	61211.74
424.64	61248.60
424.85	61781.07
425.06	62489.67
425.27	61983.82
425.47	63527.99
425.68	62481.48
425.89	62919.74
426.10	63599.67
426.30	63304.76
426.51	62776.39
426.72	63771.70
426.92	64169.00
427.13	64295.98
427.34	64134.19
427.55	64089.13
427.75	64640.04
427.96	63915.06
428.17	64633.89
428.38	64597.03
428.58	64762.92
428.79	64789.54
429.00	64535.59
429.20	65186.85
429.41	64185.39
429.62	64392.23
429.82	63996.98
430.03	64664.61
430.24	65008.67
430.45	64570.41
430.65	65528.86
430.86	65535.00
431.07	64703.52
431.27	64814.12
431.48	65375.26
431.69	64345.13
431.90	64545.83
432.10	64736.29
432.31	64394.28
432.52	64810.02
432.72	65266.72
432.93	65043.49
433.14	64214.06
433.34	64980.00
433.55	64169.00
433.76	64779.30
433.96	65262.62
434.17	64476.20
434.38	64590.89
434.58	64388.14
434.79	64269.36
435.00	64099.37
435.21	64668.71
435.41	65053.73
435.62	63677.49
435.83	64660.52
436.03	63198.27
436.24	64134.19
436.45	63896.62
436.65	64123.95
436.86	63544.37
437.07	63628.34
437.27	63964.21
437.48	64574.50
437.69	64021.55
437.89	64252.97
438.10	63738.93
438.31	64361.51
438.51	63947.82
438.72	63867.95
438.92	63648.82
439.13	62856.26
439.34	63429.69
439.54	64334.89
439.75	64388.14
439.96	62526.53
440.16	62499.91
440.37	63341.63
440.58	62762.05
440.78	62366.79
440.99	61602.90
441.20	63470.65
441.40	62737.47
441.61	62149.71
441.82	62600.26
442.02	62448.71
442.23	61807.70
442.43	62393.42
442.64	63188.03
442.85	62344.26
443.05	61985.87
443.26	62653.51
443.47	61277.27
443.67	62241.87
443.88	62266.44
444.08	62239.82
444.29	60476.52
444.50	61264.99
444.70	60705.89
444.91	61555.80
445.12	61129.82
445.32	60189.80
445.53	60933.21
445.73	60841.06
445.94	60408.93
446.15	60126.31
446.35	60722.27
446.56	60691.55
446.76	59823.22
446.97	60169.32
447.18	59579.51
447.38	58918.01
447.59	59765.87
447.79	59993.20
448.00	59272.31
448.21	58954.88
448.41	58455.17
448.62	58791.04
448.82	58772.61
449.03	58459.27
449.24	57922.70
449.44	57668.75
