SpectraSuite Data File
++++++++++++++++++++++++++++++++++++
Date: Fri Feb 07 19:37:27 EST 2020
User: BHM
Dark Spectrum Present: No
Reference Spectrum Present: No
Number of Sampled Component Spectra: 1
Spectrometers: USB4H07074
Integration Time (usec): 1000000 (USB4H07074)
Spectra Averaged: 1 (USB4H07074)
Boxcar Smoothing: 0 (USB4H07074)
Correct for Electrical Dark: No (USB4H07074)
Strobe/Lamp Enabled: No (USB4H07074)
Correct for Detector Non-linearity: No (USB4H07074)
Correct for Stray Light: No (USB4H07074)
Number of Pixels in Processed Spectrum: 3648
>>>>>Begin Processed Spectral Data<<<<<
194.67	1298.41
194.89	1298.41
195.11	1298.41
195.33	1331.18
195.55	1351.66
195.77	2377.69
195.99	2420.70
196.21	1988.58
196.42	2109.41
196.64	2410.46
196.86	2365.40
197.08	2101.22
197.30	2238.43
197.52	2148.32
197.74	2070.50
197.96	1904.61
198.18	2123.74
198.40	2338.78
198.61	2533.34
198.83	2422.75
199.05	2211.81
199.27	2418.65
199.49	2641.88
199.71	2490.33
199.93	2222.05
200.15	2486.23
200.37	2428.89
200.58	2097.12
200.80	2580.44
201.02	2572.25
201.24	2383.84
201.46	2463.71
201.68	2377.69
201.90	2267.10
202.12	2697.17
202.34	2521.05
202.55	2666.46
202.77	2441.18
202.99	2432.99
203.21	2385.88
203.43	2484.19
203.65	2416.60
203.87	2357.21
204.09	2494.43
204.30	2664.41
204.52	2787.29
204.74	2377.69
204.96	2248.67
205.18	2445.27
205.40	2539.48
205.62	2258.91
205.84	2555.86
206.05	2502.62
206.27	2555.86
206.49	2482.14
206.71	2293.72
206.93	2371.55
207.15	2629.59
207.37	2748.37
207.58	2416.60
207.80	2076.64
208.02	2408.41
208.24	2416.60
208.46	2144.22
208.68	2275.29
208.90	2762.71
209.11	2475.99
209.33	2119.65
209.55	2344.92
209.77	2299.87
209.99	2453.47
210.21	2312.16
210.43	2254.81
210.64	2621.40
210.86	2494.43
211.08	2072.54
211.30	2607.06
211.52	2459.61
211.74	2353.12
211.95	2234.33
212.17	2582.49
212.39	2418.65
212.61	2678.74
212.83	2197.47
213.05	2170.85
213.26	2531.29
213.48	2523.10
213.70	2170.85
213.92	2207.71
214.14	2639.83
214.36	2220.00
214.57	2187.23
214.79	2549.72
215.01	2613.21
215.23	2715.61
215.45	2338.78
215.67	2281.44
215.88	2533.34
216.10	2736.09
216.32	1955.81
216.54	2158.56
216.76	2445.27
216.97	2496.47
217.19	2228.19
217.41	2199.52
217.63	2516.95
217.85	2633.69
218.07	2183.13
218.28	2545.63
218.50	2641.88
218.72	2580.44
218.94	2297.82
219.16	2549.72
219.37	2324.44
219.59	2586.58
219.81	2095.07
220.03	2338.78
220.25	2549.72
220.46	2670.55
220.68	2207.71
220.90	2170.85
221.12	2510.81
221.34	2330.59
221.55	2273.25
221.77	2095.07
221.99	2299.87
222.21	2445.27
222.43	2502.62
222.64	2107.36
222.86	2734.04
223.08	2367.45
223.30	2273.25
223.52	2267.10
223.73	2529.24
223.95	2936.79
224.17	2312.16
224.39	2088.93
224.60	2512.86
224.82	2418.65
225.04	2260.96
225.26	2287.58
225.48	2258.91
225.69	2615.26
225.91	2273.25
226.13	2629.59
226.35	2510.81
226.56	2422.75
226.78	2220.00
227.00	2189.28
227.22	2568.15
227.44	2480.09
227.65	2125.79
227.87	2410.46
228.09	2293.72
228.31	2684.89
228.52	2174.94
228.74	2234.33
228.96	2574.30
229.18	2457.56
229.39	2500.57
229.61	2199.52
229.83	2289.63
230.05	2480.09
230.26	2699.22
230.48	2404.32
230.70	2445.27
230.92	2248.67
231.13	2244.57
231.35	2365.40
231.57	2449.37
231.79	2598.87
232.00	2271.20
232.22	2148.32
232.44	2492.38
232.66	2553.82
232.87	2441.18
233.09	2217.95
233.31	2738.13
233.53	2420.70
233.74	2478.04
233.96	2533.34
234.18	2349.02
234.40	2525.15
234.61	2238.43
234.83	2211.81
235.05	2500.57
235.27	2566.10
235.48	2279.39
235.70	2273.25
235.92	2478.04
236.14	2449.37
236.35	2213.85
236.57	2506.71
236.79	2531.29
237.00	2410.46
237.22	2260.96
237.44	2494.43
237.66	2385.88
237.87	2744.28
238.09	2170.85
238.31	2064.35
238.53	2359.26
238.74	2512.86
238.96	2207.71
239.18	2195.42
239.39	2295.77
239.61	2648.02
239.83	2250.72
240.05	2283.49
240.26	2240.48
240.48	2525.15
240.70	2428.89
240.91	2566.10
241.13	2392.03
241.35	2170.85
241.56	2244.57
241.78	2246.62
242.00	2516.95
242.22	2645.98
242.43	2539.48
242.65	2590.68
242.87	2469.85
243.08	2555.86
243.30	2351.07
243.52	2379.74
243.73	2883.54
243.95	2613.21
244.17	2371.55
244.39	2093.02
244.60	2506.71
244.82	2570.20
245.04	2256.86
245.25	2076.64
245.47	2435.03
245.69	2447.32
245.90	2172.89
246.12	1955.81
246.34	2607.06
246.55	2545.63
246.77	2600.92
246.99	2494.43
247.20	2465.75
247.42	2744.28
247.64	2052.06
247.86	2045.92
248.07	2707.41
248.29	2475.99
248.51	2301.92
248.72	2314.20
248.94	2623.45
249.16	2463.71
249.37	2129.89
249.59	2543.58
249.81	2334.68
250.02	2441.18
250.24	2514.91
250.46	2420.70
250.67	2549.72
250.89	2389.98
251.11	2129.89
251.32	2299.87
251.54	2516.95
251.76	2428.89
251.97	2174.94
252.19	2326.49
252.40	2299.87
252.62	2553.82
252.84	2443.23
253.05	2387.93
253.27	2881.49
253.49	2535.39
253.70	2277.34
253.92	2596.82
254.14	2711.51
254.35	2519.00
254.57	2226.14
254.79	2174.94
255.00	2899.92
255.22	2688.98
255.44	2367.45
255.65	2394.08
255.87	2410.46
256.08	2424.80
256.30	2136.03
256.52	2312.16
256.73	2545.63
256.95	2584.54
257.17	2125.79
257.38	2539.48
257.60	2443.23
257.82	2482.14
258.03	2119.65
258.25	2168.80
258.46	2377.69
258.68	2551.77
258.90	2220.00
259.11	2101.22
259.33	2705.37
259.55	2351.07
259.76	2402.27
259.98	2301.92
260.19	2133.98
260.41	2432.99
260.63	2179.04
260.84	2334.68
261.06	2426.84
261.27	2682.84
261.49	2205.66
261.71	2320.35
261.92	2320.35
262.14	2566.10
262.35	2207.71
262.57	2029.54
262.79	2353.12
263.00	2566.10
263.22	2148.32
263.44	2246.62
263.65	2478.04
263.87	2605.02
264.08	2246.62
264.30	2361.31
264.52	2478.04
264.73	2592.73
264.95	2228.19
265.16	2387.93
265.38	2467.80
265.59	2445.27
265.81	2549.72
266.03	2299.87
266.24	2455.51
266.46	2459.61
266.67	2459.61
266.89	2543.58
267.11	2478.04
267.32	2328.54
267.54	2295.77
267.75	2353.12
267.97	2299.87
268.19	2338.78
268.40	2090.98
268.62	2117.60
268.83	2500.57
269.05	2418.65
269.26	2482.14
269.48	2449.37
269.70	2400.22
269.91	2600.92
270.13	2322.40
270.34	2404.32
270.56	2320.35
270.77	2353.12
270.99	2097.12
271.21	2480.09
271.42	2400.22
271.64	2627.54
271.85	2279.39
272.07	2459.61
272.28	2623.45
272.50	2607.06
272.71	2674.65
272.93	2314.20
273.15	2256.86
273.36	2383.84
273.58	2224.09
273.79	2275.29
274.01	2744.28
274.22	2811.86
274.44	2246.62
274.65	2246.62
274.87	2320.35
275.09	2473.95
275.30	2129.89
275.52	2334.68
275.73	2473.95
275.95	2695.13
276.16	2572.25
276.38	2453.47
276.59	2629.59
276.81	2703.32
277.02	2379.74
277.24	2158.56
277.45	2924.50
277.67	2535.39
277.89	2191.33
278.10	2465.75
278.32	2357.21
278.53	2441.18
278.75	2254.81
278.96	2502.62
279.18	2383.84
279.39	2463.71
279.61	2260.96
279.82	2392.03
280.04	2392.03
280.25	2402.27
280.47	2158.56
280.68	2174.94
280.90	2457.56
281.11	2318.30
281.33	2097.12
281.54	2181.09
281.76	2400.22
281.97	2281.44
282.19	2277.34
282.40	2475.99
282.62	2310.11
282.83	2813.91
283.05	2193.37
283.27	2363.36
283.48	2207.71
283.70	2578.39
283.91	2351.07
284.13	2289.63
284.34	2301.92
284.56	2568.15
284.77	2297.82
284.99	2344.92
285.20	2408.41
285.42	2598.87
285.63	2389.98
285.84	2389.98
286.06	2506.71
286.27	2199.52
286.49	2254.81
286.70	2246.62
286.92	2439.13
287.13	2371.55
287.35	2361.31
287.56	2381.79
287.78	2756.57
287.99	2269.15
288.21	2201.57
288.42	2871.25
288.64	2723.80
288.85	2654.17
289.07	2412.51
289.28	2365.40
289.50	2342.88
289.71	2508.76
289.93	2258.91
290.14	2170.85
290.36	2662.36
290.57	2248.67
290.79	2564.06
291.00	2445.27
291.22	2451.42
291.43	2834.39
291.64	2392.03
291.86	2371.55
292.07	2607.06
292.29	2736.09
292.50	2463.71
292.72	2201.57
292.93	2815.96
293.15	2779.09
293.36	2475.99
293.58	2404.32
293.79	2535.39
294.00	2721.75
294.22	2258.91
294.43	2353.12
294.65	2975.70
294.86	2652.12
295.08	2478.04
295.29	2969.55
295.51	2744.28
295.72	2858.96
295.94	2492.38
296.15	2160.61
296.36	2519.00
296.58	2498.52
296.79	2551.77
297.01	2435.03
297.22	2582.49
297.44	2600.92
297.65	2652.12
297.86	2648.02
298.08	2580.44
298.29	2861.01
298.51	2627.54
298.72	2385.88
298.94	2451.42
299.15	2701.27
299.36	2494.43
299.58	2338.78
299.79	2791.38
300.01	2621.40
300.22	2519.00
300.44	2318.30
300.65	2602.97
300.86	2435.03
301.08	2488.28
301.29	2396.12
301.51	2916.31
301.72	3049.43
301.93	2463.71
302.15	2508.76
302.36	2873.30
302.58	2711.51
302.79	2678.74
303.01	2326.49
303.22	2668.50
303.43	2797.53
303.65	2377.69
303.86	2543.58
304.08	2637.78
304.29	2637.78
304.50	2613.21
304.72	2326.49
304.93	2533.34
305.15	3016.66
305.36	2406.36
305.57	2607.06
305.79	2494.43
306.00	2723.80
306.22	2559.96
306.43	2627.54
306.64	2709.46
306.86	2996.18
307.07	2621.40
307.28	2475.99
307.50	2709.46
307.71	2836.44
307.93	2385.88
308.14	2559.96
308.35	2707.41
308.57	2783.19
308.78	2521.05
309.00	2609.11
309.21	2740.18
309.42	2750.42
309.64	2453.47
309.85	2320.35
310.06	2596.82
310.28	2701.27
310.49	2531.29
310.71	2174.94
310.92	2846.68
311.13	2602.97
311.35	2449.37
311.56	2787.29
311.77	2725.85
311.99	2944.98
312.20	2516.95
312.41	2731.99
312.63	2762.71
312.84	2607.06
313.06	2451.42
313.27	2686.94
313.48	2568.15
313.70	2633.69
313.91	2584.54
314.12	2353.12
314.34	2762.71
314.55	2617.30
314.76	2707.41
314.98	2529.24
315.19	2555.86
315.40	2768.85
315.62	2613.21
315.83	2834.39
316.04	2848.72
316.26	2881.49
316.47	2639.83
316.68	2598.87
316.90	2654.17
317.11	2795.48
317.32	2785.24
317.54	2467.80
317.75	2723.80
317.96	2678.74
318.18	2430.94
318.39	2555.86
318.60	2654.17
318.82	2502.62
319.03	2414.56
319.24	2451.42
319.46	2881.49
319.67	2772.95
319.88	2371.55
320.10	2502.62
320.31	2592.73
320.52	2621.40
320.74	2291.68
320.95	2328.54
321.16	2443.23
321.38	2996.18
321.59	2492.38
321.80	2312.16
322.02	2525.15
322.23	3117.01
322.44	2492.38
322.65	2287.58
322.87	2738.13
323.08	2605.02
323.29	2623.45
323.51	2701.27
323.72	2811.86
323.93	2750.42
324.15	2488.28
324.36	2600.92
324.57	2664.41
324.78	2637.78
325.00	2731.99
325.21	2602.97
325.42	2672.60
325.64	2764.76
325.85	2584.54
326.06	2324.44
326.28	2572.25
326.49	2500.57
326.70	2514.91
326.91	2666.46
327.13	2803.67
327.34	2762.71
327.55	2736.09
327.77	2424.80
327.98	2680.79
328.19	2588.63
328.40	2543.58
328.62	2396.12
328.83	2742.23
329.04	2613.21
329.25	2480.09
329.47	2478.04
329.68	2641.88
329.89	2668.50
330.11	2482.14
330.32	2564.06
330.53	2609.11
330.74	2899.92
330.96	2725.85
331.17	2381.79
331.38	2942.93
331.59	2740.18
331.81	2588.63
332.02	2551.77
332.23	2766.81
332.44	2793.43
332.66	2748.37
332.87	2353.12
333.08	2709.46
333.29	2901.97
333.51	3024.85
333.72	2469.85
333.93	2510.81
334.14	2969.55
334.36	2738.13
334.57	2600.92
334.78	2969.55
334.99	2955.22
335.21	2762.71
335.42	2666.46
335.63	2830.29
335.84	2754.52
336.06	2602.97
336.27	2512.86
336.48	2695.13
336.69	2869.20
336.91	2748.37
337.12	2668.50
337.33	2930.64
337.54	2598.87
337.75	2963.41
337.97	2443.23
338.18	2895.83
338.39	2580.44
338.60	2490.33
338.82	2934.74
339.03	2805.72
339.24	2652.12
339.45	2621.40
339.66	2580.44
339.88	3246.03
340.09	2662.36
340.30	2631.64
340.51	2727.89
340.73	2895.83
340.94	3207.12
341.15	2676.70
341.36	2820.05
341.57	2766.81
341.79	2820.05
342.00	2633.69
342.21	2648.02
342.42	2578.39
342.63	2928.60
342.85	2867.16
343.06	2658.26
343.27	2613.21
343.48	2768.85
343.69	2713.56
343.91	2975.70
344.12	3022.80
344.33	2828.24
344.54	3088.34
344.75	2674.65
344.97	2854.87
345.18	2736.09
345.39	2713.56
345.60	2670.55
345.81	2865.11
346.02	2844.63
346.24	2965.46
346.45	2795.48
346.66	2815.96
346.87	2809.81
347.08	2506.71
347.30	2682.84
347.51	2932.69
347.72	2875.35
347.93	2858.96
348.14	2996.18
348.35	2762.71
348.57	2971.60
348.78	2498.52
348.99	2856.92
349.20	2762.71
349.41	3393.48
349.62	3512.27
349.84	3000.27
350.05	2994.13
350.26	2926.55
350.47	2990.03
350.68	2930.64
350.89	3112.91
351.11	3059.67
351.32	3082.19
351.53	3080.14
351.74	3178.45
351.95	3624.90
352.16	3239.89
352.37	3280.85
352.59	3327.95
352.80	3706.82
353.01	3278.80
353.22	3620.81
353.43	3696.58
353.64	3774.41
353.86	3680.20
354.07	4007.87
354.28	4061.12
354.49	4444.09
354.70	4499.39
354.91	4597.69
355.12	5275.57
355.33	5803.94
355.55	5736.36
355.76	6365.09
355.97	7057.30
356.18	7862.15
356.39	8531.84
356.60	9232.24
356.81	10655.58
357.03	12273.48
357.24	13682.48
357.45	16060.17
357.66	18439.91
357.87	21737.14
358.08	24864.39
358.29	30004.79
358.50	36134.36
358.71	42589.56
358.93	51490.03
359.14	60986.46
359.35	65535.00
359.56	65535.00
359.77	65535.00
359.98	65535.00
360.19	65535.00
360.40	65535.00
360.61	65535.00
360.83	65535.00
361.04	65535.00
361.25	65535.00
361.46	65535.00
361.67	65535.00
361.88	65535.00
362.09	65535.00
362.30	65535.00
362.51	65535.00
362.72	65535.00
362.94	65535.00
363.15	65535.00
363.36	65535.00
363.57	65535.00
363.78	65535.00
363.99	65535.00
364.20	65535.00
364.41	65535.00
364.62	65535.00
364.83	65535.00
365.04	65535.00
365.26	65535.00
365.47	65535.00
365.68	65535.00
365.89	65535.00
366.10	65535.00
366.31	65535.00
366.52	65535.00
366.73	65535.00
366.94	65535.00
367.15	65535.00
367.36	65535.00
367.57	65535.00
367.78	65535.00
367.99	65535.00
368.21	65535.00
368.42	65535.00
368.63	65535.00
368.84	65535.00
369.05	65535.00
369.26	65535.00
369.47	65535.00
369.68	65535.00
369.89	65535.00
370.10	65535.00
370.31	65535.00
370.52	65535.00
370.73	65535.00
370.94	65535.00
371.15	65535.00
371.36	65535.00
371.57	65535.00
371.78	65535.00
371.99	65535.00
372.20	65535.00
372.42	65535.00
372.63	65535.00
372.84	65535.00
373.05	65535.00
373.26	65535.00
373.47	65535.00
373.68	65535.00
373.89	65535.00
374.10	65535.00
374.31	65535.00
374.52	65535.00
374.73	65535.00
374.94	65535.00
375.15	65535.00
375.36	65535.00
375.57	65535.00
375.78	65535.00
375.99	65535.00
376.20	65535.00
376.41	65535.00
376.62	65535.00
376.83	65535.00
377.04	65535.00
377.25	65535.00
377.46	65535.00
377.67	65535.00
377.88	65535.00
378.09	65535.00
378.30	65535.00
378.51	65535.00
378.72	65535.00
378.93	65535.00
379.14	65535.00
379.35	65535.00
379.56	65535.00
379.77	65535.00
379.98	65535.00
380.19	65535.00
380.40	65535.00
380.61	65535.00
380.82	65535.00
381.03	65535.00
381.24	65535.00
381.45	65535.00
381.66	65535.00
381.87	65535.00
382.08	65535.00
382.29	65535.00
382.50	65535.00
382.71	65535.00
382.92	65535.00
383.13	65535.00
383.34	65535.00
383.55	65535.00
383.76	65535.00
383.97	65535.00
384.18	65535.00
384.39	65535.00
384.60	65535.00
384.81	65535.00
385.02	65535.00
385.23	65535.00
385.44	65535.00
385.65	65535.00
385.86	65535.00
386.07	65535.00
386.28	65535.00
386.49	65535.00
386.70	65535.00
386.91	65535.00
387.11	65535.00
387.32	65535.00
387.53	65535.00
387.74	65535.00
387.95	4007.87
388.16	3747.78
388.37	3854.28
388.58	3749.83
388.79	3594.19
389.00	3739.59
389.21	3485.64
389.42	3401.68
389.63	3286.99
389.84	3710.92
390.05	3391.44
390.26	3362.76
390.47	3203.02
390.68	3481.55
390.89	3248.08
391.09	3571.66
391.30	3405.77
391.51	3651.53
391.72	3110.86
391.93	3483.59
392.14	3346.38
392.35	3129.30
392.56	3522.51
392.77	3280.85
392.98	3246.03
393.19	3350.48
393.40	3489.74
393.61	3215.31
393.82	3538.89
394.02	3381.20
394.23	3407.82
394.44	3330.00
394.65	3450.83
394.86	3321.81
395.07	3418.06
395.28	3301.33
395.49	3303.37
395.70	3559.37
395.91	3561.42
396.12	3256.27
396.32	3612.62
396.53	3530.70
396.74	3444.68
396.95	3536.84
397.16	4022.21
397.37	3407.82
397.58	3768.26
397.79	3416.01
398.00	3635.14
398.21	3805.13
398.41	3710.92
398.62	3704.78
398.83	3706.82
399.04	4466.62
399.25	3889.09
399.46	3760.07
399.67	3663.82
399.88	4052.93
400.09	3694.54
400.29	3846.09
400.50	3991.49
400.71	3620.81
400.92	3860.42
401.13	3809.22
401.34	4052.93
401.55	3848.13
401.76	4194.24
401.96	4079.55
402.17	4100.03
402.38	4057.03
402.59	4227.01
402.80	4100.03
403.01	4349.89
403.22	4433.85
403.43	4583.35
403.63	4278.21
403.84	4624.31
404.05	4796.34
404.26	4562.87
404.47	4741.05
404.68	4929.46
404.89	5007.28
405.09	5083.06
405.30	5001.14
405.51	5396.40
405.72	5752.74
405.93	5681.07
406.14	5805.99
406.35	6205.35
406.55	6360.99
406.76	6416.29
406.97	6592.41
407.18	7022.48
407.39	7298.96
407.60	7485.33
407.80	7540.62
408.01	7993.22
408.22	8296.32
408.43	8105.86
408.64	8619.90
408.85	8869.75
409.05	9295.73
409.26	9801.58
409.47	10155.88
409.68	10202.98
409.89	10649.44
410.10	10878.81
410.30	11781.96
410.51	11841.36
410.72	12781.37
410.93	12525.38
411.14	13156.15
411.35	13590.32
411.55	14178.09
411.76	14745.38
411.97	15243.03
412.18	16125.71
412.39	16221.96
412.59	16615.17
412.80	17114.87
413.01	18380.52
413.22	18628.32
413.43	19087.07
413.63	19687.12
413.84	20213.45
414.05	20795.07
414.26	21669.56
414.47	22226.60
414.67	23107.23
414.88	23418.52
415.09	23572.12
415.30	24444.56
415.51	25593.47
415.71	26211.95
415.92	26472.04
416.13	27010.66
416.34	27557.47
416.55	28200.53
416.75	28776.01
416.96	29204.03
417.17	30344.75
417.38	30854.70
417.59	31589.92
417.79	31698.46
418.00	32089.62
418.21	33521.15
418.42	33486.34
418.62	34010.62
418.83	34655.73
419.04	34991.59
419.25	35970.52
419.46	36341.21
419.66	37213.64
419.87	37103.05
420.08	37922.24
420.29	37653.95
420.49	38475.19
420.70	39212.46
420.91	39130.54
421.12	39001.52
421.32	39679.39
421.53	40281.50
421.74	40711.57
421.95	40482.20
422.15	40826.26
422.36	41350.54
422.57	41803.14
422.78	41776.51
422.98	42351.99
423.19	42958.19
423.40	41598.34
423.61	42976.62
423.81	43830.63
424.02	43048.30
424.23	43699.56
424.44	43427.18
424.64	43515.24
424.85	43603.30
425.06	44287.32
425.27	43222.38
425.47	44463.45
425.68	43908.45
425.89	44254.56
426.10	44733.78
426.30	44598.62
426.51	44045.66
426.72	44342.62
426.92	44502.36
427.13	44596.57
427.34	44670.29
427.55	44864.85
427.75	44852.56
427.96	44815.70
428.17	45356.36
428.38	44735.83
428.58	44541.27
428.79	44569.94
429.00	44709.21
429.20	44787.03
429.41	44258.65
429.62	44223.84
429.82	44152.16
430.03	44346.72
430.24	44553.56
430.45	44574.04
430.65	45028.69
430.86	45086.03
431.07	44092.77
431.27	44535.13
431.48	44684.63
431.69	43576.68
431.90	44293.47
432.10	43957.60
432.31	44293.47
432.52	44033.38
432.72	43838.82
432.93	44150.11
433.14	43525.48
433.34	44092.77
433.55	43584.87
433.76	44260.70
433.96	44373.34
434.17	43568.49
434.38	44000.61
434.58	44076.38
434.79	43564.39
435.00	43705.70
435.21	44119.39
435.41	44320.09
435.62	43281.77
435.83	43623.78
436.03	42745.20
436.24	43361.64
436.45	43046.26
436.65	43150.70
436.86	43679.08
437.07	43390.31
437.27	43136.37
437.48	43832.68
437.69	43957.60
437.89	43386.22
438.10	43283.82
438.31	43433.32
438.51	43130.22
438.72	43357.55
438.92	43615.59
439.13	42669.43
439.34	42915.19
439.54	43875.68
439.75	43978.08
439.96	42098.05
440.16	42007.94
440.37	43181.42
440.58	42653.05
440.78	42386.81
440.99	41913.73
441.20	42732.92
441.40	42927.47
441.61	42323.32
441.82	42427.77
442.02	42567.03
442.23	41688.45
442.43	41989.50
442.64	42888.56
442.85	42421.62
443.05	42323.32
443.26	42552.69
443.47	41596.29
443.67	42247.55
443.88	42407.29
444.08	42190.20
444.29	40912.27
444.50	41598.34
444.70	41024.91
444.91	41467.27
445.12	41325.96
445.32	40670.61
445.53	40922.51
445.73	41557.38
445.94	40813.97
446.15	40162.72
446.35	41076.11
446.56	40957.33
446.76	40793.49
446.97	40392.09
447.18	39966.11
447.38	39802.27
447.59	39890.34
447.79	39822.75
