SpectraSuite Data File
++++++++++++++++++++++++++++++++++++
Date: Fri Feb 07 19:11:54 EST 2020
User: BHM
Dark Spectrum Present: No
Reference Spectrum Present: No
Number of Sampled Component Spectra: 1
Spectrometers: USB4H07074
Integration Time (usec): 1000000 (USB4H07074)
Spectra Averaged: 1 (USB4H07074)
Boxcar Smoothing: 0 (USB4H07074)
Correct for Electrical Dark: No (USB4H07074)
Strobe/Lamp Enabled: No (USB4H07074)
Correct for Detector Non-linearity: No (USB4H07074)
Correct for Stray Light: No (USB4H07074)
Number of Pixels in Processed Spectrum: 3648
>>>>>Begin Processed Spectral Data<<<<<
194.67	1294.32
194.89	1294.32
195.11	1294.32
195.33	1290.22
195.55	1202.16
195.77	2330.59
195.99	2443.23
196.21	1900.52
196.42	2080.74
196.64	2287.58
196.86	2330.59
197.08	2121.70
197.30	2222.05
197.52	2093.02
197.74	2015.20
197.96	1865.70
198.18	2041.82
198.40	2271.20
198.61	2455.51
198.83	2383.84
199.05	2121.70
199.27	2293.72
199.49	2566.10
199.71	2402.27
199.93	2193.37
200.15	2482.14
200.37	2404.32
200.58	1970.15
200.80	2508.76
201.02	2443.23
201.24	2363.36
201.46	2332.64
201.68	2273.25
201.90	2289.63
202.12	2686.94
202.34	2443.23
202.55	2602.97
202.77	2330.59
202.99	2369.50
203.21	2367.45
203.43	2422.75
203.65	2306.01
203.87	2402.27
204.09	2424.80
204.30	2660.31
204.52	2725.85
204.74	2418.65
204.96	2334.68
205.18	2326.49
205.40	2459.61
205.62	2209.76
205.84	2572.25
206.05	2363.36
206.27	2502.62
206.49	2473.95
206.71	2232.29
206.93	2371.55
207.15	2594.78
207.37	2617.30
207.58	2375.64
207.80	2172.89
208.02	2346.97
208.24	2351.07
208.46	2113.50
208.68	2236.38
208.90	2645.98
209.11	2467.80
209.33	2095.07
209.55	2273.25
209.77	2252.77
209.99	2289.63
210.21	2283.49
210.43	2240.48
210.64	2555.86
210.86	2424.80
211.08	1951.71
211.30	2500.57
211.52	2488.28
211.74	2357.21
211.95	2301.92
212.17	2523.10
212.39	2416.60
212.61	2592.73
212.83	2258.91
213.05	2121.70
213.26	2373.60
213.48	2373.60
213.70	2109.41
213.92	2244.57
214.14	2533.34
214.36	2275.29
214.57	2154.46
214.79	2455.51
215.01	2539.48
215.23	2590.68
215.45	2379.74
215.67	2160.61
215.88	2539.48
216.10	2627.54
216.32	2021.35
216.54	2086.88
216.76	2457.56
216.97	2414.56
217.19	2156.51
217.41	2211.81
217.63	2500.57
217.85	2660.31
218.07	2103.26
218.28	2559.96
218.50	2588.63
218.72	2457.56
218.94	2193.37
219.16	2404.32
219.37	2312.16
219.59	2541.53
219.81	2045.92
220.03	2211.81
220.25	2463.71
220.46	2658.26
220.68	2129.89
220.90	2133.98
221.12	2375.64
221.34	2326.49
221.55	2301.92
221.77	2052.06
221.99	2306.01
222.21	2465.75
222.43	2592.73
222.64	2009.06
222.86	2717.65
223.08	2353.12
223.30	2281.44
223.52	2338.78
223.73	2498.52
223.95	2801.62
224.17	2234.33
224.39	2209.76
224.60	2471.90
224.82	2445.27
225.04	2232.29
225.26	2191.33
225.48	2174.94
225.69	2596.82
225.91	2103.26
226.13	2521.05
226.35	2510.81
226.56	2455.51
226.78	2162.66
227.00	2127.84
227.22	2502.62
227.44	2514.91
227.65	2070.50
227.87	2248.67
228.09	2271.20
228.31	2576.34
228.52	2095.07
228.74	2142.18
228.96	2588.63
229.18	2295.77
229.39	2480.09
229.61	2131.94
229.83	2244.57
230.05	2355.16
230.26	2707.41
230.48	2279.39
230.70	2437.08
230.92	2324.44
231.13	2248.67
231.35	2273.25
231.57	2328.54
231.79	2521.05
232.00	2228.19
232.22	2011.11
232.44	2465.75
232.66	2559.96
232.87	2224.09
233.09	2174.94
233.31	2562.01
233.53	2385.88
233.74	2392.03
233.96	2455.51
234.18	2371.55
234.40	2486.23
234.61	2150.37
234.83	2142.18
235.05	2562.01
235.27	2449.37
235.48	2203.61
235.70	2346.97
235.92	2443.23
236.14	2475.99
236.35	2166.75
236.57	2455.51
236.79	2500.57
237.00	2432.99
237.22	2224.09
237.44	2412.51
237.66	2295.77
237.87	2531.29
238.09	2054.11
238.31	1931.23
238.53	2342.88
238.74	2404.32
238.96	2140.13
239.18	2197.47
239.39	2310.11
239.61	2482.14
239.83	2244.57
240.05	2154.46
240.26	2240.48
240.48	2451.42
240.70	2430.94
240.91	2465.75
241.13	2336.73
241.35	2123.74
241.56	2207.71
241.78	2242.53
242.00	2453.47
242.22	2553.82
242.43	2506.71
242.65	2533.34
242.87	2412.51
243.08	2535.39
243.30	2201.57
243.52	2269.15
243.73	2850.77
243.95	2645.98
244.17	2199.52
244.39	2076.64
244.60	2428.89
244.82	2465.75
245.04	2095.07
245.25	1968.10
245.47	2392.03
245.69	2299.87
245.90	2125.79
246.12	2004.96
246.34	2625.50
246.55	2543.58
246.77	2445.27
246.99	2412.51
247.20	2326.49
247.42	2764.76
247.64	2009.06
247.86	2013.15
248.07	2590.68
248.29	2410.46
248.51	2154.46
248.72	2346.97
248.94	2535.39
249.16	2371.55
249.37	2076.64
249.59	2502.62
249.81	2406.36
250.02	2381.79
250.24	2443.23
250.46	2367.45
250.67	2510.81
250.89	2320.35
251.11	2041.82
251.32	2226.14
251.54	2459.61
251.76	2426.84
251.97	2183.13
252.19	2289.63
252.40	2328.54
252.62	2527.19
252.84	2426.84
253.05	2336.73
253.27	2723.80
253.49	2400.22
253.70	2199.52
253.92	2621.40
254.14	2600.92
254.35	2306.01
254.57	2113.50
254.79	2127.84
255.00	2772.95
255.22	2535.39
255.44	2318.30
255.65	2215.90
255.87	2320.35
256.08	2414.56
256.30	2105.31
256.52	2226.14
256.73	2432.99
256.95	2449.37
257.17	1984.48
257.38	2467.80
257.60	2490.33
257.82	2363.36
258.03	2072.54
258.25	2133.98
258.46	2279.39
258.68	2506.71
258.90	2201.57
259.11	2080.74
259.33	2699.22
259.55	2308.06
259.76	2424.80
259.98	2156.51
260.19	2121.70
260.41	2361.31
260.63	2144.22
260.84	2095.07
261.06	2463.71
261.27	2529.24
261.49	2166.75
261.71	2273.25
261.92	2330.59
262.14	2523.10
262.35	2158.56
262.57	2019.30
262.79	2338.78
263.00	2506.71
263.22	2119.65
263.44	2238.43
263.65	2437.08
263.87	2465.75
264.08	2203.61
264.30	2392.03
264.52	2355.16
264.73	2648.02
264.95	2084.83
265.16	2355.16
265.38	2334.68
265.59	2435.03
265.81	2381.79
266.03	2236.38
266.24	2416.60
266.46	2377.69
266.67	2365.40
266.89	2537.43
267.11	2400.22
267.32	2320.35
267.54	2271.20
267.75	2363.36
267.97	2236.38
268.19	2267.10
268.40	2078.69
268.62	2052.06
268.83	2521.05
269.05	2318.30
269.26	2404.32
269.48	2275.29
269.70	2248.67
269.91	2615.26
270.13	2269.15
270.34	2324.44
270.56	2248.67
270.77	2256.86
270.99	2015.20
271.21	2285.53
271.42	2265.05
271.64	2596.82
271.85	2232.29
272.07	2404.32
272.28	2625.50
272.50	2508.76
272.71	2521.05
272.93	2359.26
273.15	2269.15
273.36	2371.55
273.58	2101.22
273.79	2238.43
274.01	2559.96
274.22	2723.80
274.44	2131.94
274.65	2189.28
274.87	2189.28
275.09	2412.51
275.30	2072.54
275.52	2121.70
275.73	2478.04
275.95	2533.34
276.16	2484.19
276.38	2252.77
276.59	2592.73
276.81	2629.59
277.02	2387.93
277.24	2019.30
277.45	2838.48
277.67	2527.19
277.89	2189.28
278.10	2447.32
278.32	2293.72
278.53	2332.64
278.75	2150.37
278.96	2342.88
279.18	2375.64
279.39	2334.68
279.61	2162.66
279.82	2312.16
280.04	2355.16
280.25	2297.82
280.47	2060.26
280.68	2125.79
280.90	2306.01
281.11	2144.22
281.33	2150.37
281.54	2088.93
281.76	2383.84
281.97	2232.29
282.19	2191.33
282.40	2437.08
282.62	2301.92
282.83	2639.83
283.05	2148.32
283.27	2353.12
283.48	2095.07
283.70	2459.61
283.91	2332.64
284.13	2125.79
284.34	2283.49
284.56	2475.99
284.77	2195.42
284.99	2312.16
285.20	2287.58
285.42	2502.62
285.63	2435.03
285.84	2346.97
286.06	2359.26
286.27	2172.89
286.49	2166.75
286.70	2203.61
286.92	2299.87
287.13	2289.63
287.35	2211.81
287.56	2351.07
287.78	2631.64
287.99	2164.70
288.21	2095.07
288.42	2727.89
288.64	2539.48
288.85	2559.96
289.07	2398.17
289.28	2320.35
289.50	2283.49
289.71	2316.25
289.93	2117.60
290.14	2039.78
290.36	2564.06
290.57	2179.04
290.79	2459.61
291.00	2353.12
291.22	2430.94
291.43	2879.44
291.64	2271.20
291.86	2328.54
292.07	2531.29
292.29	2623.45
292.50	2320.35
292.72	2142.18
292.93	2705.37
293.15	2654.17
293.36	2322.40
293.58	2326.49
293.79	2291.68
294.00	2574.30
294.22	2217.95
294.43	2271.20
294.65	2858.96
294.86	2594.78
295.08	2555.86
295.29	2895.83
295.51	2639.83
295.72	2754.52
295.94	2346.97
296.15	1980.39
296.36	2375.64
296.58	2412.51
296.79	2379.74
297.01	2289.63
297.22	2437.08
297.44	2570.20
297.65	2506.71
297.86	2627.54
298.08	2455.51
298.29	2691.03
298.51	2357.21
298.72	2363.36
298.94	2373.60
299.15	2566.10
299.36	2408.41
299.58	2283.49
299.79	2748.37
300.01	2535.39
300.22	2383.84
300.44	2140.13
300.65	2502.62
300.86	2306.01
301.08	2371.55
301.29	2287.58
301.51	2789.33
301.72	2893.78
301.93	2404.32
302.15	2338.78
302.36	2799.57
302.58	2598.87
302.79	2519.00
303.01	2306.01
303.22	2596.82
303.43	2740.18
303.65	2314.20
303.86	2435.03
304.08	2576.34
304.29	2488.28
304.50	2463.71
304.72	2162.66
304.93	2367.45
305.15	2916.31
305.36	2258.91
305.57	2445.27
305.79	2269.15
306.00	2656.22
306.22	2516.95
306.43	2461.66
306.64	2523.10
306.86	2856.92
307.07	2506.71
307.28	2271.20
307.50	2523.10
307.71	2953.17
307.93	2250.72
308.14	2359.26
308.35	2461.66
308.57	2643.93
308.78	2445.27
309.00	2455.51
309.21	2639.83
309.42	2584.54
309.64	2365.40
309.85	2197.47
310.06	2547.67
310.28	2588.63
310.49	2367.45
310.71	2058.21
310.92	2668.50
311.13	2527.19
311.35	2275.29
311.56	2533.34
311.77	2637.78
311.99	2641.88
312.20	2398.17
312.41	2584.54
312.63	2707.41
312.84	2596.82
313.06	2318.30
313.27	2510.81
313.48	2471.90
313.70	2555.86
313.91	2443.23
314.12	2222.05
314.34	2705.37
314.55	2529.24
314.76	2516.95
314.98	2510.81
315.19	2535.39
315.40	2650.07
315.62	2496.47
315.83	2729.94
316.04	2838.48
316.26	2697.17
316.47	2543.58
316.68	2449.37
316.90	2383.84
317.11	2570.20
317.32	2607.06
317.54	2510.81
317.75	2527.19
317.96	2543.58
318.18	2283.49
318.39	2461.66
318.60	2480.09
318.82	2379.74
319.03	2222.05
319.24	2361.31
319.46	2820.05
319.67	2727.89
319.88	2265.05
320.10	2447.32
320.31	2428.89
320.52	2506.71
320.74	2285.53
320.95	2127.84
321.16	2297.82
321.38	2789.33
321.59	2424.80
321.80	2179.04
322.02	2455.51
322.23	2914.26
322.44	2451.42
322.65	2142.18
322.87	2529.24
323.08	2512.86
323.29	2506.71
323.51	2570.20
323.72	2666.46
323.93	2594.78
324.15	2346.97
324.36	2414.56
324.57	2553.82
324.78	2600.92
325.00	2717.65
325.21	2369.50
325.42	2473.95
325.64	2537.43
325.85	2412.51
326.06	2228.19
326.28	2400.22
326.49	2449.37
326.70	2367.45
326.91	2510.81
327.13	2600.92
327.34	2582.49
327.55	2547.67
327.77	2326.49
327.98	2514.91
328.19	2555.86
328.40	2377.69
328.62	2189.28
328.83	2535.39
329.04	2504.67
329.25	2195.42
329.47	2344.92
329.68	2500.57
329.89	2566.10
330.11	2332.64
330.32	2283.49
330.53	2394.08
330.74	2631.64
330.96	2375.64
331.17	2271.20
331.38	2703.32
331.59	2443.23
331.81	2351.07
332.02	2201.57
332.23	2512.86
332.44	2432.99
332.66	2580.44
332.87	2125.79
333.08	2521.05
333.29	2648.02
333.51	2723.80
333.72	2242.53
333.93	2355.16
334.14	2686.94
334.36	2596.82
334.57	2338.78
334.78	2635.74
334.99	2754.52
335.21	2545.63
335.42	2383.84
335.63	2656.22
335.84	2568.15
336.06	2392.03
336.27	2289.63
336.48	2355.16
336.69	2695.13
336.91	2381.79
337.12	2478.04
337.33	2568.15
337.54	2383.84
337.75	2715.61
337.97	2189.28
338.18	2654.17
338.39	2473.95
338.60	2201.57
338.82	2684.89
339.03	2478.04
339.24	2428.89
339.45	2408.41
339.66	2185.18
339.88	2807.77
340.09	2402.27
340.30	2375.64
340.51	2418.65
340.73	2535.39
340.94	2942.93
341.15	2355.16
341.36	2387.93
341.57	2490.33
341.79	2654.17
342.00	2371.55
342.21	2252.77
342.42	2174.94
342.63	2594.78
342.85	2531.29
343.06	2404.32
343.27	2297.82
343.48	2420.70
343.69	2285.53
343.91	2502.62
344.12	2645.98
344.33	2326.49
344.54	2686.94
344.75	2236.38
344.97	2375.64
345.18	2293.72
345.39	2396.12
345.60	2328.54
345.81	2441.18
346.02	2383.84
346.24	2602.97
346.45	2424.80
346.66	2422.75
346.87	2525.15
347.08	2121.70
347.30	2248.67
347.51	2598.87
347.72	2426.84
347.93	2424.80
348.14	2492.38
348.35	2363.36
348.57	2344.92
348.78	2011.11
348.99	2213.85
349.20	2265.05
349.41	2803.67
349.62	2897.88
349.84	2535.39
350.05	2445.27
350.26	2355.16
350.47	2287.58
350.68	2383.84
350.89	2469.85
351.11	2506.71
351.32	2457.56
351.53	2404.32
351.74	2555.86
351.95	2781.14
352.16	2428.89
352.37	2291.68
352.59	2412.51
352.80	2574.30
353.01	2236.38
353.22	2490.33
353.43	2574.30
353.64	2519.00
353.86	2248.67
354.07	2469.85
354.28	2375.64
354.49	2506.71
354.70	2414.56
354.91	2248.67
355.12	2629.59
355.33	2662.36
355.55	2187.23
355.76	2490.33
355.97	2506.71
356.18	2580.44
356.39	2314.20
356.60	2187.23
356.81	2537.43
357.03	2492.38
357.24	2432.99
357.45	2598.87
357.66	2465.75
357.87	2584.54
358.08	2447.32
358.29	2412.51
358.50	2531.29
358.71	2678.74
358.93	2510.81
359.14	2314.20
359.35	3330.00
359.56	2527.19
359.77	2684.89
359.98	2545.63
360.19	2844.63
360.40	2961.36
360.61	3010.51
360.83	2969.55
361.04	3192.78
361.25	3229.65
361.46	3231.69
361.67	3022.80
361.88	3383.24
362.09	3420.11
362.30	3731.40
362.51	3856.33
362.72	4077.51
362.94	4655.03
363.15	4671.42
363.36	4966.32
363.57	4818.87
363.78	4902.84
363.99	5087.15
364.20	4681.66
364.41	4763.58
364.62	4816.82
364.83	4726.71
365.04	4423.61
365.26	4558.78
365.47	4431.80
365.68	4239.30
365.89	4202.43
366.10	3975.11
366.31	4597.69
366.52	3807.17
366.73	4081.60
366.94	3891.14
367.15	3348.43
367.36	3200.98
367.57	3110.86
367.78	2959.31
367.99	2930.64
368.21	2740.18
368.42	2801.62
368.63	2861.01
368.84	3020.75
369.05	2875.35
369.26	2740.18
369.47	2863.06
369.68	2987.99
369.89	2623.45
370.10	2912.21
370.31	3295.18
370.52	2936.79
370.73	2555.86
370.94	2899.92
371.15	3008.47
371.36	2957.27
371.57	2711.51
371.78	2822.10
371.99	2908.12
372.20	3393.48
372.42	3119.06
372.63	2826.20
372.84	2904.02
373.05	2926.55
373.26	2736.09
373.47	3041.23
373.68	2891.73
373.89	2940.88
374.10	2654.17
374.31	3190.74
374.52	2959.31
374.73	2918.36
374.94	2998.23
375.15	3207.12
375.36	2947.03
375.57	2998.23
375.78	2881.49
375.99	2996.18
376.20	2922.45
376.41	3305.42
376.62	3219.41
376.83	3444.68
377.04	3389.39
377.25	3741.64
377.46	3680.20
377.67	3758.02
377.88	4003.78
378.09	4530.11
378.30	3948.48
378.51	4364.22
378.72	4317.12
378.93	4675.51
379.14	4315.07
379.35	4431.80
379.56	4822.97
379.77	5087.15
379.98	4857.78
380.19	4945.84
380.40	4822.97
380.61	4882.36
380.82	4827.06
381.03	4997.04
381.24	4997.04
381.45	4583.35
381.66	4644.79
381.87	4562.87
382.08	4575.16
382.29	4517.82
382.50	4413.37
382.71	4542.39
382.92	4302.78
383.13	4460.48
383.34	3983.30
383.55	3719.11
383.76	3809.22
383.97	3880.90
384.18	3852.23
384.39	3817.41
384.60	3817.41
384.81	3637.19
385.02	3588.04
385.23	3653.58
385.44	3536.84
385.65	4073.41
385.86	3629.00
386.07	3325.90
386.28	3375.05
386.49	3155.92
386.70	3227.60
386.91	3319.76
387.11	3491.79
387.32	3217.36
387.53	3219.41
387.74	3405.77
387.95	3432.40
388.16	3270.61
388.37	3667.91
388.58	3551.18
388.79	3315.66
389.00	3489.74
389.21	3385.29
389.42	3135.44
389.63	3069.91
389.84	3686.34
390.05	3299.28
390.26	3233.74
390.47	3188.69
390.68	3342.28
390.89	3096.53
391.09	3387.34
391.30	3207.12
391.51	3598.28
391.72	3106.77
391.93	3323.85
392.14	3381.20
392.35	3231.69
392.56	3598.28
392.77	3186.64
392.98	3309.52
393.19	3442.64
393.40	3547.08
393.61	3274.70
393.82	3643.34
394.02	3520.46
394.23	3475.40
394.44	3395.53
394.65	3614.66
394.86	3495.88
395.07	3547.08
395.28	3286.99
395.49	3391.44
395.70	3641.29
395.91	3741.64
396.12	3463.12
396.32	3821.51
396.53	3778.50
396.74	3774.41
396.95	3796.93
397.16	4302.78
397.37	3930.05
397.58	4247.49
397.79	3782.60
398.00	4147.14
398.21	4380.61
398.41	4257.73
398.62	4261.82
398.83	4282.30
399.04	5066.67
399.25	4595.64
399.46	4487.10
399.67	4513.72
399.88	4796.34
400.09	4736.95
400.29	5009.33
400.50	5062.58
400.71	4675.51
400.92	4951.99
401.13	4995.00
401.34	5314.48
401.55	5068.72
401.76	5371.82
401.96	5195.70
402.17	5636.01
402.38	5633.96
402.59	5871.53
402.80	5603.24
403.01	6166.43
403.22	6279.07
403.43	6528.92
403.63	6119.33
403.84	6774.68
404.05	6967.19
404.26	6987.67
404.47	7131.03
404.68	7446.41
404.89	7686.03
405.09	7753.61
405.30	7911.30
405.51	8333.18
405.72	9011.06
405.93	9111.41
406.14	9254.77
406.35	10008.42
406.55	10166.12
406.76	10389.35
406.97	10839.90
407.18	11155.29
407.39	11736.91
407.60	12037.96
407.80	12375.88
408.01	13074.23
408.22	13166.39
408.43	13463.35
408.64	14219.05
408.85	15013.66
409.05	15386.39
409.26	16080.65
409.47	16602.88
409.68	16873.21
409.89	17475.32
410.10	18368.23
410.30	18943.71
410.51	19668.69
410.72	20317.90
410.93	20891.33
411.14	21288.64
411.35	22324.91
411.55	22918.82
411.76	23660.18
411.97	24092.30
412.18	25742.97
412.39	25880.18
412.59	26513.00
412.80	27582.04
413.01	28925.51
413.22	29185.60
413.43	30055.99
413.63	30596.65
413.84	31223.33
414.05	32212.50
414.26	33041.93
414.47	34360.82
414.67	34604.53
414.88	35646.94
415.09	36541.91
415.30	37178.82
415.51	38467.00
415.71	38860.21
415.92	39919.01
416.13	40189.34
416.34	40830.35
416.55	41874.82
416.75	42585.46
416.96	43162.99
417.17	44234.08
417.38	45184.33
417.59	45589.83
417.79	46007.62
418.00	47170.86
418.21	48424.22
418.42	48307.49
418.62	49437.97
418.83	50287.87
419.04	50517.25
419.25	51137.78
419.46	51944.68
419.66	52802.78
419.87	53408.98
420.08	54019.27
420.29	53552.33
420.49	54650.05
420.70	55620.78
420.91	55471.28
421.12	55915.69
421.32	56196.26
421.53	57476.24
421.74	57777.29
421.95	57371.80
422.15	58188.94
422.36	58700.93
422.57	59210.87
422.78	58596.48
422.98	59901.04
423.19	60421.22
423.40	59618.42
423.61	60435.56
423.81	62014.54
424.02	60968.03
424.23	61949.01
424.44	62102.60
424.64	61469.78
424.85	62016.59
425.06	62391.37
425.27	61762.64
425.47	62979.14
425.68	62321.74
425.89	63255.61
426.10	63265.85
426.30	63241.28
426.51	62915.65
426.72	63765.56
426.92	63976.50
427.13	63810.61
427.34	63722.55
427.55	63824.95
427.75	64556.07
427.96	63992.88
428.17	65270.81
428.38	64443.43
428.58	64332.84
428.79	64465.96
429.00	64336.94
429.20	64724.00
429.41	64312.36
429.62	64160.81
429.82	64103.47
430.03	64717.86
430.24	64705.57
430.45	64685.09
430.65	65229.85
430.86	65483.80
431.07	64777.25
431.27	65123.36
431.48	65328.16
431.69	64594.98
431.90	64592.93
432.10	64381.99
432.31	64515.11
432.52	64736.29
432.72	65250.33
432.93	65385.50
433.14	64433.19
433.34	65125.41
433.55	64234.54
433.76	64760.87
433.96	65049.63
434.17	64957.47
434.38	65125.41
434.58	65127.45
434.79	64648.23
435.00	64422.95
435.21	64771.11
435.41	65129.50
435.62	64336.94
435.83	65123.36
436.03	63722.55
436.24	64875.55
436.45	64322.60
436.65	63886.39
436.86	64750.63
437.07	64220.20
437.27	64492.58
437.48	65012.77
437.69	64560.17
437.89	64767.01
438.10	63788.08
438.31	64943.14
438.51	64453.67
438.72	64345.13
438.92	64056.37
439.13	63532.09
439.34	64115.76
439.54	64660.52
439.75	64508.97
439.96	62915.65
440.16	62841.92
440.37	63740.98
440.58	63433.78
440.78	63003.71
440.99	62174.28
441.20	64031.79
441.40	63614.01
441.61	62579.78
441.82	62997.57
442.02	63079.49
442.23	61858.90
442.43	62704.71
442.64	62899.26
442.85	62874.69
443.05	63173.69
443.26	63177.79
443.47	61817.94
443.67	62577.73
443.88	62534.73
444.08	62608.45
444.29	61299.80
444.50	62231.63
444.70	60486.76
444.91	62002.25
445.12	61314.14
445.32	60705.89
445.53	61365.34
445.73	61371.48
445.94	60482.66
446.15	60163.18
446.35	60783.71
446.56	60814.43
446.76	60195.95
446.97	60079.21
447.18	59382.90
447.38	59069.56
447.59	59956.33
447.79	59815.02
448.00	58944.64
448.21	58963.07
448.41	58387.59
448.62	58420.36
448.82	58823.81
449.03	58072.20
449.24	57441.43
449.44	57220.25
